Frequency[MHz];Amplitude RX1[mV] at pwm=100
 45.000;988
 45.063;1149
 45.125;1064
 45.188;1035
 45.250;1032
 45.313;1035
 45.375;1022
 45.438;1035
 45.500;1032
 45.563;1035
 45.625;1035
 45.688;1042
 45.750;1052
 45.813;1042
 45.875;1052
 45.938;1047
 46.000;1049
 46.063;1049
 46.125;1047
 46.188;1059
 46.250;1044
 46.313;1049
 46.375;1047
 46.438;1042
 46.500;1052
 46.563;1054
 46.625;1057
 46.688;1044
 46.750;1044
 46.813;1042
 46.875;1035
 46.938;1044
 47.000;1049
 47.063;1052
 47.125;1042
 47.188;1047
 47.250;1042
 47.313;1037
 47.375;1040
 47.438;1035
 47.500;1044
 47.563;1049
 47.625;1049
 47.688;1035
 47.750;1052
 47.813;1047
 47.875;1037
 47.938;1057
 48.000;1049
 48.063;1049
 48.125;1047
 48.188;1037
 48.250;1042
 48.313;1040
 48.375;1049
 48.438;1044
 48.500;1042
 48.563;1044
 48.625;1040
 48.688;1047
 48.750;1037
 48.813;1044
 48.875;1040
 48.938;1040
 49.000;1047
 49.063;1047
 49.125;1044
 49.188;1044
 49.250;1049
 49.313;1047
 49.375;1047
 49.438;1035
 49.500;1040
 49.563;1047
 49.625;1047
 49.688;1044
 49.750;1052
 49.813;1049
 49.875;1049
 49.938;1064
 50.000;1052
 50.063;1044
 50.125;1049
 50.188;1042
 50.250;1042
 50.313;1054
 50.375;1052
 50.438;1037
 50.500;1054
 50.563;1049
 50.625;1049
 50.688;1052
 50.750;1054
 50.813;1042
 50.875;1062
 50.938;1047
 51.000;1049
 51.063;1047
 51.125;1057
 51.188;1057
 51.250;1062
 51.313;1052
 51.375;1047
 51.438;1052
 51.500;1054
 51.563;1054
 51.625;1054
 51.688;1064
 51.750;1059
 51.813;1049
 51.875;1049
 51.938;1052
 52.000;1049
 52.063;1057
 52.125;1062
 52.188;1054
 52.250;1054
 52.313;1052
 52.375;1054
 52.438;1049
 52.500;1066
 52.563;1074
 52.625;1064
 52.688;1057
 52.750;1059
 52.813;1052
 52.875;1052
 52.938;1069
 53.000;1057
 53.063;1059
 53.125;1069
 53.188;1054
 53.250;1049
 53.313;1057
 53.375;1052
 53.438;1054
 53.500;1059
 53.563;1081
 53.625;1069
 53.688;1096
 53.750;1198
 53.813;1369
 53.875;1601
 53.938;1909
 54.000;2019
 54.063;2087
 54.125;2058
 54.188;1999
 54.250;1953
 54.313;1757
 54.375;1520
 54.438;1247
 54.500;1069
 54.563;1044
 54.625;1040
 54.688;1037
 54.750;1044
 54.813;1044
 54.875;1052
 54.938;1047
 55.000;1044
 55.063;1032
 55.125;1035
 55.188;1057
 55.250;1145
 55.313;1188
 55.375;1208
 55.438;1159
 55.500;1140
 55.563;1091
 55.625;1044
 55.688;1040
 55.750;1047
 55.813;1049
 55.875;1037
 55.938;1037
 56.000;1047
 56.063;1049
 56.125;1049
 56.188;1054
 56.250;1052
 56.313;1052
 56.375;1052
 56.438;1054
 56.500;1052
 56.563;1049
 56.625;1052
 56.688;1062
 56.750;1076
 56.813;1064
 56.875;1054
 56.938;1054
 57.000;1052
 57.063;1054
 57.125;1062
 57.188;1064
 57.250;1064
 57.313;1076
 57.375;1069
 57.438;1062
 57.500;1059
 57.563;1059
 57.625;1057
 57.688;1064
 57.750;1059
 57.813;1049
 57.875;1054
 57.938;1054
 58.000;1052
 58.063;1052
 58.125;1062
 58.188;1071
 58.250;1064
 58.313;1062
 58.375;1052
 58.438;1049
 58.500;1049
 58.563;1052
 58.625;1054
 58.688;1057
 58.750;1047
 58.813;1044
 58.875;1059
 58.938;1044
 59.000;1057
 59.063;1069
 59.125;1054
 59.188;1049
 59.250;1049
 59.313;1047
 59.375;1066
 59.438;1152
 59.500;1359
 59.563;1545
 59.625;1582
 59.688;1650
 59.750;1660
 59.813;1604
 59.875;1469
 59.938;1174
 60.000;1074
 60.063;1054
 60.125;1057
 60.188;1037
 60.250;1042
 60.313;1054
 60.375;1040
 60.438;1044
 60.500;1049
 60.563;1044
 60.625;1044
 60.688;1042
 60.750;1037
 60.813;1044
 60.875;1040
 60.938;1030
 61.000;1042
 61.063;1042
 61.125;1037
 61.188;1042
 61.250;1049
 61.313;1047
 61.375;1049
 61.438;1047
 61.500;1052
 61.563;1044
 61.625;1044
 61.688;1047
 61.750;1054
 61.813;1054
 61.875;1059
 61.938;1047
 62.000;1052
 62.063;1049
 62.125;1044
 62.188;1059
 62.250;1057
 62.313;1054
 62.375;1062
 62.438;1057
 62.500;1066
 62.563;1047
 62.625;1059
 62.688;1062
 62.750;1059
 62.813;1062
 62.875;1064
 62.938;1047
 63.000;1054
 63.063;1054
 63.125;1064
 63.188;1064
 63.250;1052
 63.313;1057
 63.375;1054
 63.438;1049
 63.500;1062
 63.563;1069
 63.625;1064
 63.688;1062
 63.750;1062
 63.813;1049
 63.875;1057
 63.938;1054
 64.000;1057
 64.063;1052
 64.125;1057
 64.188;1057
 64.250;1054
 64.313;1054
 64.375;1049
 64.438;1042
 64.500;1057
 64.563;1059
 64.625;1062
 64.688;1059
 64.750;1059
 64.813;1049
 64.875;1066
 64.938;1059
 65.000;1064
 65.063;1052
 65.125;1054
 65.188;1054
 65.250;1054
 65.313;1054
 65.375;1049
 65.438;1054
 65.500;1049
 65.563;1057
 65.625;1052
 65.688;1049
 65.750;1044
 65.813;1049
 65.875;1057
 65.938;1054
 66.000;1042
 66.063;1044
 66.125;1054
 66.188;1042
 66.250;1054
 66.313;1145
 66.375;1179
 66.438;1225
 66.500;1166
 66.563;1147
 66.625;1091
 66.688;1074
 66.750;1064
 66.813;1064
 66.875;1054
 66.938;1059
 67.000;1049
 67.063;1044
 67.125;1044
 67.188;1054
 67.250;1062
 67.313;1059
 67.375;1064
 67.438;1052
 67.500;1059
 67.563;1057
 67.625;1059
 67.688;1064
 67.750;1069
 67.813;1069
 67.875;1066
 67.938;1062
 68.000;1059
 68.063;1059
 68.125;1074
 68.188;1071
 68.250;1071
 68.313;1066
 68.375;1076
 68.438;1074
 68.500;1071
 68.563;1069
 68.625;1062
 68.688;1069
 68.750;1081
 68.813;1088
 68.875;1081
 68.938;1074
 69.000;1062
 69.063;1066
 69.125;1079
 69.188;1071
 69.250;1071
 69.313;1071
 69.375;1059
 69.438;1049
 69.500;1052
 69.563;1062
 69.625;1062
 69.688;1057
 69.750;1059
 69.813;1057
 69.875;1059
 69.938;1052
 70.000;1064
 70.063;1071
 70.125;1071
 70.188;1069
 70.250;1054
 70.313;1069
 70.375;1054
 70.438;1066
 70.500;1062
 70.563;1057
 70.625;1064
 70.688;1052
 70.750;1057
 70.813;1062
 70.875;1054
 70.938;1064
 71.000;1059
 71.063;1059
 71.125;1057
 71.188;1057
 71.250;1057
 71.313;1066
 71.375;1054
 71.438;1057
 71.500;1057
 71.563;1049
 71.625;1042
 71.688;1062
 71.750;1042
 71.813;1047
 71.875;1047
 71.938;1049
 72.000;1040
 72.063;1049
 72.125;1052
 72.188;1044
 72.250;1052
 72.313;1047
 72.375;1044
 72.438;1052
 72.500;1062
 72.563;1044
 72.625;1052
 72.688;1044
 72.750;1037
 72.813;1052
 72.875;1052
 72.938;1059
 73.000;1049
 73.063;1054
 73.125;1044
 73.188;1052
 73.250;1064
 73.313;1062
 73.375;1059
 73.438;1057
 73.500;1044
 73.563;1054
 73.625;1054
 73.688;1062
 73.750;1064
 73.813;1069
 73.875;1064
 73.938;1062
 74.000;1047
 74.063;1059
 74.125;1059
 74.188;1062
 74.250;1059
 74.313;1059
 74.375;1057
 74.438;1057
 74.500;1054
 74.563;1062
 74.625;1069
 74.688;1062
 74.750;1062
 74.813;1052
 74.875;1054
 74.938;1057
 75.000;1079
 75.063;1091
 75.125;1074
 75.188;1071
 75.250;1059
 75.313;1057
 75.375;1059
 75.438;1057
 75.500;1057
 75.563;1059
 75.625;1062
 75.688;1047
 75.750;1062
 75.813;1057
 75.875;1054
 75.938;1044
 76.000;1047
 76.063;1052
 76.125;1052
 76.188;1049
 76.250;1040
 76.313;1059
 76.375;1032
 76.438;1047
 76.500;1037
 76.563;1047
 76.625;1049
 76.688;1044
 76.750;1042
 76.813;1035
 76.875;1037
 76.938;1044
 77.000;1042
 77.063;1040
 77.125;1047
 77.188;1044
 77.250;1044
 77.313;1057
 77.375;1120
 77.438;1154
 77.500;1176
 77.563;1135
 77.625;1118
 77.688;1076
 77.750;1047
 77.813;1049
 77.875;1040
 77.938;1047
 78.000;1044
 78.063;1052
 78.125;1049
 78.188;1054
 78.250;1052
 78.313;1044
 78.375;1052
 78.438;1054
 78.500;1042
 78.563;1049
 78.625;1042
 78.688;1049
 78.750;1049
 78.813;1052
 78.875;1047
 78.938;1052
 79.000;1054
 79.063;1049
 79.125;1054
 79.188;1054
 79.250;1052
 79.313;1059
 79.375;1069
 79.438;1074
 79.500;1081
 79.563;1083
 79.625;1074
 79.688;1049
 79.750;1059
 79.813;1054
 79.875;1049
 79.938;1054
 80.000;1054
 80.063;1049
 80.125;1059
 80.188;1057
 80.250;1054
 80.313;1057
 80.375;1049
 80.438;1049
 80.500;1044
 80.563;1054
 80.625;1057
 80.688;1062
 80.750;1062
 80.813;1062
 80.875;1088
 80.938;1303
 81.000;1447
 81.063;1511
 81.125;1501
 81.188;1435
 81.250;1401
 81.313;1218
 81.375;1086
 81.438;1054
 81.500;1044
 81.563;1054
 81.625;1054
 81.688;1047
 81.750;1049
 81.813;1042
 81.875;1044
 81.938;1037
 82.000;1040
 82.063;1042
 82.125;1049
 82.188;1032
 82.250;1035
 82.313;1040
 82.375;1044
 82.438;1044
 82.500;1032
 82.563;1042
 82.625;1040
 82.688;1035
 82.750;1040
 82.813;1044
 82.875;1040
 82.938;1035
 83.000;1040
 83.063;1044
 83.125;1040
 83.188;1035
 83.250;1032
 83.313;1040
 83.375;1040
 83.438;1040
 83.500;1037
 83.563;1044
 83.625;1037
 83.688;1044
 83.750;1047
 83.813;1047
 83.875;1047
 83.938;1047
 84.000;1049
 84.063;1044
 84.125;1049
 84.188;1047
 84.250;1049
 84.313;1049
 84.375;1052
 84.438;1047
 84.500;1044
 84.563;1052
 84.625;1049
 84.688;1049
 84.750;1052
 84.813;1052
 84.875;1054
 84.938;1049
 85.000;1049
 85.063;1049
 85.125;1044
 85.188;1049
 85.250;1057
 85.313;1057
 85.375;1059
 85.438;1047
 85.500;1052
 85.563;1052
 85.625;1059
 85.688;1054
 85.750;1064
 85.813;1057
 85.875;1052
 85.938;1044
 86.000;1032
 86.063;1040
 86.125;1047
 86.188;1057
 86.250;1059
 86.313;1052
 86.375;1062
 86.438;1120
 86.500;1318
 86.563;1520
 86.625;1564
 86.688;1625
 86.750;1657
 86.813;1596
 86.875;1494
 86.938;1193
 87.000;1074
 87.063;1052
 87.125;1054
 87.188;1049
 87.250;1052
 87.313;1037
 87.375;1054
 87.438;1042
 87.500;1042
 87.563;1057
 87.625;1049
 87.688;1049
 87.750;1052
 87.813;1047
 87.875;1047
 87.938;1040
 88.000;1037
 88.063;1047
 88.125;1047
 88.188;1037
 88.250;1042
 88.313;1035
 88.375;1040
 88.438;1040
 88.500;1037
 88.563;1059
 88.625;1035
 88.688;1044
 88.750;1037
 88.813;1042
 88.875;1042
 88.938;1040
 89.000;1037
 89.063;1032
 89.125;1047
 89.188;1037
 89.250;1052
 89.313;1047
 89.375;1040
 89.438;1042
 89.500;1044
 89.563;1049
 89.625;1044
 89.688;1044
 89.750;1044
 89.813;1054
 89.875;1052
 89.938;1049
 90.000;1035
 90.063;1044
 90.125;1044
 90.188;1049
 90.250;1049
 90.313;1049
 90.375;1054
 90.438;1054
 90.500;1066
 90.563;1049
 90.625;1049
 90.688;1032
 90.750;1040
 90.813;1047
 90.875;1059
 90.938;1052
 91.000;1042
 91.063;1047
 91.125;1052
 91.188;1042
 91.250;1057
 91.313;1047
 91.375;1059
 91.438;1054
 91.500;1042
 91.563;1052
 91.625;1042
 91.688;1044
 91.750;1049
 91.813;1054
 91.875;1052
 91.938;1040
 92.000;1044
 92.063;1047
 92.125;1040
 92.188;1054
 92.250;1057
 92.313;1044
 92.375;1049
 92.438;1040
 92.500;1049
 92.563;1049
 92.625;1032
 92.688;1044
 92.750;1042
 92.813;1040
 92.875;1037
 92.938;1040
 93.000;1040
 93.063;1032
 93.125;1035
 93.188;1035
 93.250;1044
 93.313;1040
 93.375;1040
 93.438;1040
 93.500;1030
 93.563;1027
 93.625;1042
 93.688;1037
 93.750;1044
 93.813;1044
 93.875;1040
 93.938;1030
 94.000;1037
 94.063;1040
 94.125;1040
 94.188;1037
 94.250;1032
 94.313;1042
 94.375;1040
 94.438;1040
 94.500;1037
 94.563;1032
 94.625;1037
 94.688;1042
 94.750;1035
 94.813;1032
 94.875;1032
 94.938;1035
 95.000;1044
 95.063;1044
 95.125;1042
 95.188;1035
 95.250;1044
 95.313;1037
 95.375;1047
 95.438;1047
 95.500;1037
 95.563;1052
 95.625;1044
 95.688;1042
 95.750;1044
 95.813;1049
 95.875;1052
 95.938;1047
 96.000;1047
 96.063;1049
 96.125;1047
 96.188;1040
 96.250;1044
 96.313;1047
 96.375;1054
 96.438;1057
 96.500;1040
 96.563;1047
 96.625;1035
 96.688;1037
 96.750;1047
 96.813;1052
 96.875;1047
 96.938;1040
 97.000;1040
 97.063;1030
 97.125;1047
 97.188;1052
 97.250;1057
 97.313;1049
 97.375;1054
 97.438;1037
 97.500;1044
 97.563;1035
 97.625;1044
 97.688;1052
 97.750;1054
 97.813;1042
 97.875;1047
 97.938;1052
 98.000;1044
 98.063;1040
 98.125;1049
 98.188;1040
 98.250;1040
 98.313;1049
 98.375;1044
 98.438;1069
 98.500;1047
 98.563;1052
 98.625;1052
 98.688;1044
 98.750;1035
 98.813;1042
 98.875;1027
 98.938;1042
 99.000;1044
 99.063;1047
 99.125;1044
 99.188;1037
 99.250;1042
 99.313;1037
 99.375;1047
 99.438;1047
 99.500;1086
 99.563;1108
 99.625;1115
 99.688;1088
 99.750;1071
 99.813;1042
 99.875;1040
 99.938;1047
100.000;1059
100.063;1064
100.125;1054
100.188;1062
100.250;1054
100.313;1054
100.375;1054
100.438;1042
100.500;1044
100.563;1052
100.625;1047
100.688;1047
100.750;1049
100.813;1037
100.875;1047
100.938;1047
101.000;1057
101.063;1047
101.125;1049
101.188;1047
101.250;1042
101.313;1054
101.375;1054
101.438;1047
101.500;1066
101.563;1057
101.625;1074
101.688;1074
101.750;1069
101.813;1054
101.875;1054
101.938;1064
102.000;1069
102.063;1049
102.125;1049
102.188;1052
102.250;1047
102.313;1049
102.375;1049
102.438;1044
102.500;1044
102.563;1047
102.625;1049
102.688;1037
102.750;1037
102.813;1049
102.875;1047
102.938;1037
103.000;1037
103.063;1040
103.125;1044
103.188;1042
103.250;1042
103.313;1047
103.375;1049
103.438;1040
103.500;1040
103.563;1040
103.625;1025
103.688;1044
103.750;1035
103.813;1035
103.875;1035
103.938;1044
104.000;1032
104.063;1042
104.125;1044
104.188;1044
104.250;1044
104.313;1037
104.375;1040
104.438;1044
104.500;1044
104.563;1047
104.625;1044
104.688;1054
104.750;1064
104.813;1059
104.875;1054
104.938;1052
105.000;1047
105.063;1040
105.125;1042
105.188;1044
105.250;1044
105.313;1049
105.375;1047
105.438;1052
105.500;1054
105.563;1047
105.625;1044
105.688;1035
105.750;1044
105.813;1040
105.875;1042
105.938;1040
106.000;1047
106.063;1044
106.125;1052
106.188;1054
106.250;1040
106.313;1035
106.375;1047
106.438;1052
106.500;1049
106.563;1042
106.625;1049
106.688;1057
106.750;1057
106.813;1054
106.875;1054
106.938;1044
107.000;1049
107.063;1052
107.125;1047
107.188;1040
107.250;1030
107.313;1044
107.375;1044
107.438;1044
107.500;1040
107.563;1035
107.625;1040
107.688;1037
107.750;1037
107.813;1052
107.875;1076
107.938;1267
108.000;1442
108.063;1503
108.125;1511
108.188;1442
108.250;1413
108.313;1242
108.375;1091
108.438;1037
108.500;1037
108.563;1040
108.625;1037
108.688;1040
108.750;1037
108.813;1047
108.875;1047
108.938;1037
109.000;1027
109.063;1037
109.125;1032
109.188;1032
109.250;1040
109.313;1035
109.375;1035
109.438;1035
109.500;1044
109.563;1030
109.625;1040
109.688;1037
109.750;1030
109.813;1030
109.875;1040
109.938;1035
110.000;1032
110.063;1044
110.125;1037
110.188;1047
110.250;1037
110.313;1032
110.375;1042
110.438;1040
110.500;1047
110.563;1088
110.625;1110
110.688;1115
110.750;1086
110.813;1091
110.875;1052
110.938;1042
111.000;1040
111.063;1044
111.125;1047
111.188;1032
111.250;1035
111.313;1035
111.375;1035
111.438;1042
111.500;1042
111.563;1047
111.625;1044
111.688;1042
111.750;1044
111.813;1027
111.875;1035
111.938;1042
112.000;1037
112.063;1030
112.125;1035
112.188;1035
112.250;1042
112.313;1037
112.375;1032
112.438;1027
112.500;1042
112.563;1042
112.625;1044
112.688;1032
112.750;1044
112.813;1032
112.875;1042
112.938;1044
113.000;1037
113.063;1042
113.125;1042
113.188;1037
113.250;1032
113.313;1032
113.375;1044
113.438;1040
113.500;1054
113.563;1105
113.625;1145
113.688;1188
113.750;1220
113.813;1176
113.875;1115
113.938;1044
114.000;1040
114.063;1040
114.125;1035
114.188;1030
114.250;1035
114.313;1040
114.375;1030
114.438;1037
114.500;1032
114.563;1035
114.625;1032
114.688;1030
114.750;1035
114.813;1035
114.875;1025
114.938;1037
115.000;1040
115.063;1037
115.125;1025
115.188;1022
115.250;1032
115.313;1040
115.375;1035
115.438;1032
115.500;1037
115.563;1032
115.625;1037
115.688;1025
115.750;1032
115.813;1040
115.875;1020
115.938;1030
116.000;1032
116.063;1032
116.125;1032
116.188;1027
116.250;1035
116.313;1027
116.375;1040
116.438;1032
116.500;1035
116.563;1030
116.625;1030
116.688;1030
116.750;1022
116.813;1030
116.875;1020
116.938;1042
117.000;1032
117.063;1037
117.125;1030
117.188;1032
117.250;1037
117.313;1040
117.375;1035
117.438;1032
117.500;1030
117.563;1030
117.625;1032
117.688;1025
117.750;1035
117.813;1040
117.875;1030
117.938;1037
118.000;1042
118.063;1042
118.125;1032
118.188;1030
118.250;1030
118.313;1032
118.375;1037
118.438;1035
118.500;1032
118.563;1035
118.625;1032
118.688;1022
118.750;1027
118.813;1030
118.875;1032
118.938;1040
119.000;1032
119.063;1032
119.125;1035
119.188;1030
119.250;1032
119.313;1032
119.375;1037
119.438;1030
119.500;1027
119.563;1035
119.625;1032
119.688;1030
119.750;1037
119.813;1037
119.875;1037
119.938;1025
120.000;1035
120.063;1035
120.125;1030
120.188;1025
120.250;1030
120.313;1032
120.375;1027
120.438;1030
120.500;1025
120.563;1035
120.625;1035
120.688;1022
120.750;1035
120.813;1027
120.875;1025
120.938;1037
121.000;1035
121.063;1035
121.125;1032
121.188;1025
121.250;1025
121.313;1032
121.375;1018
121.438;1032
121.500;1027
121.563;1035
121.625;1057
121.688;1071
121.750;1071
121.813;1047
121.875;1044
121.938;1032
122.000;1032
122.063;1027
122.125;1025
122.188;1018
122.250;1027
122.313;1035
122.375;1030
122.438;1035
122.500;1025
122.563;1040
122.625;1035
122.688;1032
122.750;1025
122.813;1030
122.875;1027
122.938;1030
123.000;1035
123.063;1035
123.125;1027
123.188;1027
123.250;1030
123.313;1025
123.375;1035
123.438;1025
123.500;1027
123.563;1040
123.625;1044
123.688;1049
123.750;1062
123.813;1054
123.875;1047
123.938;1035
124.000;1030
124.063;1027
124.125;1032
124.188;1035
124.250;1035
124.313;1032
124.375;1027
124.438;1027
124.500;1025
124.563;1030
124.625;1037
124.688;1027
124.750;1032
124.813;1027
124.875;1032
124.938;1037
125.000;1052
125.063;1076
125.125;1054
125.188;1044
125.250;1044
125.313;1032
125.375;1032
125.438;1032
125.500;1032
125.563;1032
125.625;1027
125.688;1022
125.750;1037
125.813;1032
125.875;1022
125.938;1032
126.000;1032
126.063;1027
126.125;1035
126.188;1040
126.250;1030
126.313;1022
126.375;1032
126.438;1022
126.500;1020
126.563;1032
126.625;1027
126.688;1025
126.750;1030
126.813;1022
126.875;1025
126.938;1032
127.000;1025
127.063;1025
127.125;1027
127.188;1032
127.250;1035
127.313;1025
127.375;1022
127.438;1022
127.500;1032
127.563;1030
127.625;1022
127.688;1032
127.750;1030
127.813;1030
127.875;1032
127.938;1020
128.000;1027
128.063;1030
128.125;1030
128.188;1030
128.250;1030
128.313;1032
128.375;1032
128.438;1022
128.500;1020
128.563;1030
128.625;1027
128.688;1037
128.750;1037
128.813;1035
128.875;1032
128.938;1032
129.000;1035
129.063;1040
129.125;1037
129.188;1025
129.250;1030
129.313;1025
129.375;1037
129.438;1037
129.500;1032
129.563;1035
129.625;1032
129.688;1030
129.750;1022
129.813;1032
129.875;1025
129.938;1025
130.000;1030
130.063;1030
130.125;1030
130.188;1025
130.250;1032
130.313;1035
130.375;1022
130.438;1032
130.500;1037
130.563;1020
130.625;1030
130.688;1037
130.750;1020
130.813;1035
130.875;1032
130.938;1037
131.000;1030
131.063;1035
131.125;1027
131.188;1025
131.250;1027
131.313;1027
131.375;1022
131.438;1030
131.500;1032
131.563;1037
131.625;1022
131.688;1025
131.750;1027
131.813;1025
131.875;1030
131.938;1030
132.000;1022
132.063;1025
132.125;1030
132.188;1032
132.250;1022
132.313;1032
132.375;1032
132.438;1027
132.500;1032
132.563;1027
132.625;1054
132.688;1137
132.750;1188
132.813;1181
132.875;1120
132.938;1110
133.000;1044
133.063;1037
133.125;1035
133.188;1025
133.250;1027
133.313;1022
133.375;1025
133.438;1035
133.500;1037
133.563;1052
133.625;1037
133.688;1032
133.750;1025
133.813;1030
133.875;1032
133.938;1030
134.000;1030
