Frequency[MHz];Amplitude RX1[mV] at pwm=60
 45.000;1271
 45.063;1669
 45.125;1989
 45.188;1872
 45.250;1894
 45.313;1962
 45.375;1752
 45.438;1726
 45.500;1669
 45.563;1669
 45.625;1679
 45.688;1691
 45.750;1796
 45.813;1896
 45.875;1987
 45.938;2011
 46.000;2060
 46.063;2041
 46.125;2009
 46.188;1938
 46.250;1840
 46.313;1779
 46.375;1730
 46.438;1694
 46.500;1694
 46.563;1672
 46.625;1677
 46.688;1687
 46.750;1684
 46.813;1677
 46.875;1704
 46.938;1818
 47.000;1989
 47.063;2048
 47.125;2104
 47.188;2141
 47.250;2124
 47.313;2084
 47.375;2053
 47.438;1877
 47.500;1774
 47.563;1752
 47.625;1772
 47.688;1789
 47.750;1816
 47.813;1816
 47.875;1833
 47.938;1862
 48.000;1875
 48.063;1901
 48.125;1892
 48.188;1909
 48.250;1916
 48.313;1933
 48.375;1896
 48.438;1938
 48.500;1879
 48.563;1867
 48.625;1862
 48.688;1845
 48.750;1833
 48.813;1887
 48.875;1914
 48.938;1940
 49.000;1945
 49.063;1970
 49.125;1979
 49.188;1970
 49.250;1972
 49.313;2001
 49.375;2021
 49.438;2014
 49.500;1997
 49.563;2006
 49.625;1997
 49.688;1992
 49.750;2026
 49.813;1999
 49.875;2011
 49.938;2009
 50.000;2014
 50.063;2016
 50.125;2016
 50.188;2004
 50.250;2016
 50.313;2026
 50.375;2009
 50.438;2038
 50.500;2043
 50.563;2041
 50.625;2060
 50.688;2041
 50.750;2033
 50.813;2058
 50.875;2050
 50.938;2038
 51.000;2021
 51.063;2011
 51.125;2021
 51.188;1999
 51.250;1994
 51.313;2006
 51.375;2006
 51.438;1992
 51.500;1992
 51.563;1960
 51.625;1979
 51.688;1970
 51.750;1987
 51.813;1997
 51.875;1994
 51.938;1975
 52.000;1965
 52.063;1967
 52.125;1958
 52.188;1950
 52.250;1962
 52.313;1972
 52.375;1972
 52.438;1970
 52.500;1979
 52.563;1962
 52.625;1972
 52.688;1960
 52.750;1950
 52.813;1948
 52.875;1982
 52.938;1970
 53.000;1962
 53.063;1933
 53.125;1943
 53.188;1979
 53.250;1975
 53.313;1967
 53.375;1965
 53.438;1962
 53.500;1955
 53.563;1933
 53.625;1945
 53.688;1916
 53.750;1955
 53.813;1958
 53.875;1960
 53.938;1982
 54.000;1962
 54.063;1960
 54.125;1965
 54.188;1979
 54.250;1975
 54.313;1975
 54.375;1928
 54.438;1955
 54.500;1965
 54.563;1984
 54.625;1984
 54.688;1992
 54.750;2004
 54.813;2043
 54.875;2109
 54.938;2153
 55.000;2194
 55.063;2246
 55.125;2275
 55.188;2260
 55.250;2268
 55.313;2263
 55.375;2233
 55.438;2209
 55.500;2165
 55.563;2033
 55.625;2004
 55.688;2009
 55.750;1948
 55.813;1901
 55.875;1906
 55.938;1906
 56.000;1850
 56.063;1875
 56.125;1889
 56.188;1848
 56.250;1806
 56.313;1909
 56.375;1950
 56.438;1938
 56.500;1857
 56.563;1833
 56.625;1843
 56.688;1853
 56.750;1892
 56.813;1909
 56.875;1918
 56.938;1884
 57.000;1894
 57.063;1879
 57.125;1892
 57.188;1875
 57.250;1943
 57.313;1955
 57.375;2011
 57.438;2055
 57.500;2060
 57.563;2041
 57.625;2021
 57.688;1979
 57.750;1940
 57.813;1909
 57.875;1911
 57.938;1892
 58.000;1906
 58.063;1877
 58.125;1921
 58.188;1906
 58.250;1909
 58.313;1892
 58.375;1855
 58.438;1804
 58.500;1826
 58.563;1760
 58.625;1794
 58.688;1782
 58.750;1787
 58.813;1774
 58.875;1791
 58.938;1787
 59.000;1774
 59.063;1752
 59.125;1787
 59.188;1796
 59.250;1794
 59.313;1777
 59.375;1826
 59.438;2011
 59.500;2241
 59.563;2343
 59.625;2351
 59.688;2353
 59.750;2351
 59.813;2346
 59.875;2287
 59.938;2099
 60.000;1875
 60.063;1735
 60.125;1730
 60.188;1704
 60.250;1728
 60.313;1728
 60.375;1730
 60.438;1669
 60.500;1699
 60.563;1652
 60.625;1696
 60.688;1699
 60.750;1699
 60.813;1694
 60.875;1708
 60.938;1740
 61.000;1806
 61.063;1826
 61.125;1784
 61.188;1777
 61.250;1789
 61.313;1772
 61.375;1770
 61.438;1777
 61.500;1757
 61.563;1774
 61.625;1762
 61.688;1865
 61.750;1889
 61.813;1950
 61.875;1914
 61.938;1884
 62.000;1831
 62.063;1767
 62.125;1684
 62.188;1748
 62.250;1630
 62.313;1713
 62.375;1840
 62.438;1823
 62.500;1635
 62.563;1669
 62.625;1647
 62.688;1645
 62.750;1640
 62.813;1625
 62.875;1674
 62.938;1591
 63.000;1616
 63.063;1599
 63.125;1677
 63.188;1611
 63.250;1630
 63.313;1618
 63.375;1660
 63.438;1679
 63.500;1689
 63.563;1728
 63.625;1755
 63.688;1787
 63.750;1855
 63.813;1860
 63.875;1892
 63.938;1916
 64.000;1943
 64.063;1962
 64.125;2028
 64.188;2075
 64.250;2124
 64.313;2067
 64.375;2055
 64.438;1992
 64.500;1901
 64.563;1860
 64.625;1867
 64.688;1911
 64.750;1877
 64.813;1860
 64.875;1848
 64.938;1872
 65.000;1821
 65.063;1794
 65.125;1804
 65.188;1811
 65.250;1806
 65.313;1794
 65.375;1787
 65.438;1772
 65.500;1765
 65.563;1772
 65.625;1779
 65.688;1796
 65.750;1796
 65.813;1811
 65.875;1823
 65.938;1804
 66.000;1806
 66.063;1791
 66.125;1794
 66.188;1806
 66.250;1804
 66.313;1804
 66.375;1809
 66.438;1779
 66.500;1787
 66.563;1809
 66.625;1801
 66.688;1799
 66.750;1799
 66.813;1811
 66.875;1850
 66.938;1906
 67.000;1955
 67.063;1916
 67.125;1916
 67.188;1889
 67.250;1850
 67.313;1831
 67.375;1818
 67.438;1870
 67.500;1821
 67.563;1816
 67.625;1813
 67.688;1823
 67.750;1806
 67.813;1806
 67.875;1809
 67.938;1784
 68.000;1801
 68.063;1809
 68.125;1801
 68.188;1799
 68.250;1804
 68.313;1784
 68.375;1806
 68.438;1809
 68.500;1835
 68.563;1870
 68.625;1870
 68.688;1901
 68.750;1911
 68.813;1909
 68.875;1911
 68.938;1928
 69.000;1887
 69.063;1953
 69.125;1970
 69.188;1987
 69.250;1945
 69.313;1977
 69.375;1943
 69.438;1987
 69.500;2031
 69.563;1984
 69.625;1987
 69.688;1975
 69.750;1979
 69.813;1994
 69.875;2014
 69.938;1958
 70.000;1970
 70.063;2019
 70.125;2019
 70.188;1987
 70.250;1999
 70.313;1982
 70.375;2004
 70.438;1965
 70.500;1970
 70.563;1989
 70.625;2006
 70.688;2023
 70.750;1989
 70.813;2009
 70.875;2006
 70.938;2026
 71.000;2001
 71.063;2053
 71.125;2221
 71.188;2268
 71.250;2272
 71.313;2253
 71.375;2248
 71.438;2104
 71.500;2043
 71.563;2031
 71.625;2014
 71.688;2028
 71.750;2011
 71.813;2006
 71.875;2026
 71.938;1987
 72.000;2009
 72.063;2014
 72.125;1994
 72.188;2031
 72.250;2036
 72.313;2045
 72.375;2033
 72.438;2026
 72.500;2031
 72.563;2036
 72.625;1989
 72.688;2004
 72.750;1984
 72.813;2033
 72.875;2038
 72.938;2021
 73.000;2050
 73.063;2043
 73.125;2055
 73.188;2033
 73.250;2036
 73.313;2026
 73.375;2043
 73.438;2016
 73.500;2099
 73.563;2185
 73.625;2189
 73.688;2155
 73.750;2145
 73.813;2109
 73.875;2036
 73.938;2031
 74.000;1904
 74.063;1938
 74.125;1962
 74.188;1953
 74.250;2004
 74.313;2141
 74.375;2177
 74.438;2187
 74.500;2182
 74.563;2136
 74.625;2058
 74.688;2001
 74.750;1984
 74.813;1975
 74.875;1975
 74.938;2006
 75.000;2097
 75.063;2207
 75.125;2224
 75.188;2180
 75.250;2172
 75.313;2111
 75.375;1987
 75.438;1979
 75.500;1950
 75.563;1960
 75.625;1953
 75.688;1967
 75.750;1948
 75.813;1948
 75.875;1950
 75.938;1943
 76.000;1936
 76.063;1926
 76.125;1918
 76.188;1936
 76.250;1928
 76.313;1918
 76.375;1921
 76.438;1921
 76.500;1899
 76.563;1918
 76.625;1948
 76.688;2033
 76.750;2111
 76.813;2202
 76.875;2182
 76.938;2128
 77.000;2033
 77.063;1953
 77.125;1887
 77.188;1870
 77.250;1872
 77.313;1870
 77.375;1887
 77.438;1853
 77.500;1867
 77.563;1843
 77.625;1879
 77.688;1855
 77.750;1870
 77.813;1853
 77.875;1875
 77.938;1875
 78.000;1872
 78.063;1848
 78.125;1850
 78.188;1875
 78.250;1892
 78.313;2070
 78.375;2167
 78.438;2180
 78.500;2128
 78.563;2094
 78.625;1984
 78.688;1867
 78.750;1816
 78.813;1801
 78.875;1796
 78.938;1757
 79.000;1791
 79.063;1789
 79.125;1799
 79.188;1806
 79.250;1811
 79.313;1884
 79.375;2111
 79.438;2290
 79.500;2331
 79.563;2341
 79.625;2326
 79.688;2316
 79.750;2214
 79.813;1997
 79.875;1826
 79.938;1767
 80.000;1767
 80.063;1701
 80.125;1723
 80.188;1711
 80.250;1682
 80.313;1699
 80.375;1674
 80.438;1657
 80.500;1650
 80.563;1696
 80.625;1682
 80.688;1662
 80.750;1682
 80.813;1823
 80.875;1857
 80.938;1745
 81.000;1704
 81.063;1738
 81.125;1757
 81.188;1735
 81.250;1738
 81.313;1733
 81.375;1723
 81.438;1694
 81.500;1687
 81.563;1699
 81.625;1726
 81.688;1752
 81.750;1735
 81.813;1755
 81.875;1745
 81.938;1787
 82.000;1760
 82.063;1752
 82.125;1740
 82.188;1728
 82.250;1696
 82.313;1699
 82.375;1726
 82.438;1745
 82.500;1748
 82.563;1713
 82.625;1713
 82.688;1716
 82.750;1721
 82.813;1711
 82.875;1684
 82.938;1657
 83.000;1647
 83.063;1625
 83.125;1618
 83.188;1604
 83.250;1630
 83.313;1643
 83.375;1655
 83.438;1662
 83.500;1716
 83.563;1733
 83.625;1755
 83.688;1791
 83.750;1799
 83.813;1796
 83.875;1896
 83.938;2172
 84.000;2316
 84.063;2348
 84.125;2351
 84.188;2351
 84.250;2348
 84.313;2333
 84.375;2202
 84.438;1960
 84.500;1821
 84.563;1750
 84.625;1772
 84.688;1760
 84.750;1726
 84.813;1740
 84.875;1755
 84.938;1718
 85.000;1672
 85.063;1669
 85.125;1672
 85.188;1650
 85.250;1618
 85.313;1643
 85.375;1687
 85.438;1677
 85.500;1757
 85.563;1706
 85.625;1662
 85.688;1662
 85.750;1677
 85.813;1672
 85.875;1669
 85.938;1645
 86.000;1660
 86.063;1669
 86.125;1677
 86.188;1677
 86.250;1672
 86.313;1696
 86.375;1667
 86.438;1665
 86.500;1677
 86.563;1674
 86.625;1682
 86.688;1691
 86.750;1750
 86.813;1796
 86.875;1816
 86.938;1721
 87.000;1674
 87.063;1640
 87.125;1621
 87.188;1516
 87.250;1479
 87.313;1423
 87.375;1389
 87.438;1411
 87.500;1423
 87.563;1372
 87.625;1538
 87.688;1669
 87.750;1940
 87.813;2023
 87.875;2011
 87.938;1647
 88.000;1474
 88.063;1535
 88.125;1621
 88.188;1630
 88.250;1650
 88.313;1574
 88.375;1435
 88.438;1450
 88.500;1662
 88.563;1418
 88.625;1416
 88.688;1455
 88.750;1484
 88.813;1574
 88.875;1662
 88.938;1489
 89.000;1616
 89.063;1713
 89.125;1501
 89.188;1376
 89.250;1425
 89.313;1452
 89.375;1447
 89.438;1577
 89.500;1540
 89.563;1457
 89.625;1464
 89.688;1491
 89.750;1462
 89.813;1479
 89.875;1491
 89.938;1499
 90.000;1445
 90.063;1574
 90.125;1743
 90.188;1911
 90.250;2075
 90.313;2114
 90.375;2102
 90.438;2077
 90.500;2041
 90.563;1784
 90.625;1757
 90.688;1665
 90.750;1621
 90.813;1674
 90.875;1872
 90.938;2175
 91.000;2309
 91.063;2333
 91.125;2346
 91.188;2336
 91.250;2331
 91.313;2265
 91.375;1965
 91.438;1870
 91.500;1691
 91.563;1618
 91.625;1723
 91.688;1909
 91.750;2033
 91.813;2053
 91.875;2036
 91.938;2038
 92.000;1989
 92.063;1950
 92.125;1862
 92.188;1689
 92.250;1665
 92.313;1650
 92.375;1640
 92.438;1799
 92.500;1855
 92.563;2011
 92.625;1999
 92.688;1994
 92.750;1972
 92.813;1997
 92.875;1967
 92.938;1931
 93.000;1850
 93.063;1762
 93.125;1633
 93.188;1691
 93.250;1752
 93.313;2031
 93.375;2092
 93.438;2248
 93.500;2309
 93.563;2275
 93.625;2255
 93.688;2224
 93.750;1970
 93.813;1896
 93.875;1740
 93.938;1596
 94.000;1630
 94.063;1804
 94.125;1896
 94.188;2197
 94.250;2260
 94.313;2277
 94.375;2255
 94.438;2224
 94.500;2155
 94.563;1967
 94.625;1838
 94.688;1738
 94.750;1767
 94.813;1853
 94.875;2197
 94.938;2246
 95.000;2302
 95.063;2304
 95.125;2270
 95.188;2246
 95.250;2045
 95.313;1994
 95.375;1931
 95.438;1772
 95.500;1743
 95.563;1701
 95.625;1850
 95.688;1909
 95.750;2009
 95.813;2016
 95.875;2031
 95.938;2031
 96.000;2001
 96.063;1960
 96.125;1923
 96.188;1877
 96.250;1765
 96.313;1735
 96.375;1733
 96.438;1860
 96.500;1977
 96.563;2111
 96.625;2253
 96.688;2316
 96.750;2312
 96.813;2290
 96.875;2253
 96.938;2141
 97.000;1914
 97.063;1818
 97.125;1662
 97.188;1752
 97.250;1777
 97.313;1960
 97.375;2006
 97.438;2023
 97.500;2028
 97.563;1982
 97.625;1979
 97.688;1933
 97.750;1875
 97.813;1850
 97.875;1665
 97.938;1726
 98.000;1718
 98.063;1838
 98.125;1960
 98.188;2192
 98.250;2253
 98.313;2282
 98.375;2255
 98.438;2253
 98.500;2172
 98.563;2004
 98.625;1884
 98.688;1799
 98.750;1472
 98.813;1647
 98.875;1738
 98.938;1767
 99.000;1789
 99.063;1809
 99.125;1816
 99.188;1723
 99.250;1677
 99.313;1730
 99.375;1789
 99.438;1821
 99.500;1765
 99.563;1752
 99.625;1640
 99.688;1562
 99.750;1628
 99.813;1816
 99.875;1813
 99.938;1743
100.000;1728
100.063;1555
100.125;1674
100.188;1657
100.250;1586
100.313;1567
100.375;1562
100.438;1572
100.500;1638
100.563;1635
100.625;1718
100.688;1896
100.750;1950
100.813;1831
100.875;1723
100.938;1640
101.000;1542
101.063;1579
101.125;1440
101.188;1484
101.250;1511
101.313;1474
101.375;1479
101.438;1525
101.500;1801
101.563;1843
101.625;1699
101.688;1501
101.750;1418
101.813;1166
101.875;1206
101.938;1599
102.000;1708
102.063;1542
102.125;1462
102.188;1455
102.250;1640
102.313;1704
102.375;1716
102.438;1733
102.500;1650
102.563;1496
102.625;1279
102.688;1379
102.750;1325
102.813;1206
102.875;1213
102.938;1281
103.000;1416
103.063;1433
103.125;1206
103.188;1147
103.250;1083
103.313;1191
103.375;1748
103.438;1750
103.500;1430
103.563;1462
103.625;1599
103.688;1687
103.750;1884
103.813;2167
103.875;2294
103.938;2343
104.000;2351
104.063;2355
104.125;2351
104.188;2333
104.250;2241
104.313;2053
104.375;1799
104.438;1450
104.500;1286
104.563;1171
104.625;1157
104.688;1145
104.750;1418
104.813;1254
104.875;1174
104.938;1066
105.000;1232
105.063;1069
105.125;1093
105.188;1210
105.250;1113
105.313;1428
105.375;1904
105.438;1833
105.500;1286
105.563;1154
105.625;1398
105.688;1628
105.750;1481
105.813;1440
105.875;1376
105.938;1264
106.000;1110
106.063;1081
106.125;1079
106.188;1096
106.250;1213
106.313;1335
106.375;1352
106.438;1481
106.500;1696
106.563;1110
106.625;1257
106.688;1799
106.750;2060
106.813;1838
106.875;1166
106.938;1083
107.000;1113
107.063;1162
107.125;1252
107.188;1115
107.250;1110
107.313;1154
107.375;1293
107.438;1269
107.500;1081
107.563;1142
107.625;1164
107.688;1157
107.750;1206
107.813;1394
107.875;1640
107.938;1862
108.000;1992
108.063;2033
108.125;2106
108.188;2065
108.250;1948
108.313;1621
108.375;1333
108.438;1320
108.500;1418
108.563;1447
108.625;1425
108.688;1428
108.750;1440
108.813;1442
108.875;1428
108.938;1442
109.000;1452
109.063;1455
109.125;1459
109.188;1464
109.250;1447
109.313;1440
109.375;1411
109.438;1425
109.500;1447
109.563;1420
109.625;1450
109.688;1442
109.750;1442
109.813;1420
109.875;1442
109.938;1413
110.000;1437
110.063;1440
110.125;1464
110.188;1469
110.250;1467
110.313;1464
110.375;1474
110.438;1479
110.500;1491
110.563;1440
110.625;1442
110.688;1474
110.750;1525
110.813;1694
110.875;1984
110.938;2026
111.000;2094
111.063;2026
111.125;1999
111.188;1882
111.250;1728
111.313;1667
111.375;1684
111.438;1706
111.500;1638
111.563;1582
111.625;1555
111.688;1433
111.750;1394
111.813;1430
111.875;1455
111.938;1455
112.000;1489
112.063;1501
112.125;1486
112.188;1547
112.250;1506
112.313;1489
112.375;1499
112.438;1469
112.500;1440
112.563;1459
112.625;1430
112.688;1455
112.750;1455
112.813;1430
112.875;1457
112.938;1496
113.000;1518
113.063;1530
113.125;1555
113.188;1618
113.250;1901
113.313;2048
113.375;2072
113.438;2050
113.500;2053
113.563;2023
113.625;1770
113.688;1584
113.750;1579
113.813;1564
113.875;1557
113.938;1586
114.000;1638
114.063;1923
114.125;2053
114.188;2087
114.250;2058
114.313;2016
114.375;1989
114.438;1821
114.500;1564
114.563;1555
114.625;1525
114.688;1662
114.750;1975
114.813;2084
114.875;2150
114.938;2128
115.000;2087
115.063;2038
115.125;1960
115.188;1601
115.250;1552
115.313;1469
115.375;1433
115.438;1479
115.500;1508
115.563;1513
115.625;1535
115.688;1516
115.750;1501
115.813;1477
115.875;1481
115.938;1457
116.000;1452
116.063;1452
116.125;1455
116.188;1428
116.250;1484
116.313;1564
116.375;1684
116.438;1953
116.500;2145
116.563;2197
116.625;2199
116.688;2163
116.750;2126
116.813;1989
116.875;1767
116.938;1574
117.000;1533
117.063;1525
117.125;1481
117.188;1464
117.250;1464
117.313;1484
117.375;1503
117.438;1506
117.500;1511
117.563;1486
117.625;1469
117.688;1462
117.750;1459
117.813;1452
117.875;1457
117.938;1552
118.000;1728
118.063;1882
118.125;2031
118.188;2138
118.250;2082
118.313;2087
118.375;1943
118.438;1843
118.500;1611
118.563;1435
118.625;1420
118.688;1477
118.750;1503
118.813;1503
118.875;1523
118.938;1528
119.000;1540
119.063;1528
119.125;1550
119.188;1706
119.250;1779
119.313;1831
119.375;1787
119.438;1779
119.500;1767
119.563;1743
119.625;1687
119.688;1669
119.750;1643
119.813;1601
119.875;1564
119.938;1542
120.000;1452
120.063;1420
120.125;1396
120.188;1398
120.250;1406
120.313;1420
120.375;1440
120.438;1442
120.500;1481
120.563;1525
120.625;1547
120.688;1560
120.750;1530
120.813;1474
120.875;1420
120.938;1396
121.000;1418
121.063;1413
121.125;1428
121.188;1413
121.250;1401
121.313;1374
121.375;1398
121.438;1437
121.500;1428
121.563;1425
121.625;1442
121.688;1464
121.750;1462
121.813;1437
121.875;1433
121.938;1389
122.000;1401
122.063;1401
122.125;1462
122.188;1464
122.250;1496
122.313;1506
122.375;1457
122.438;1425
122.500;1401
122.563;1386
122.625;1386
122.688;1381
122.750;1386
122.813;1376
122.875;1379
122.938;1379
123.000;1384
123.063;1376
123.125;1362
123.188;1372
123.250;1374
123.313;1376
123.375;1401
123.438;1425
123.500;1455
123.563;1635
123.625;1779
123.688;1938
123.750;2248
123.813;2314
123.875;2343
123.938;2341
124.000;2331
124.063;2294
124.125;2109
124.188;1948
124.250;1772
124.313;1474
124.375;1408
124.438;1401
124.500;1386
124.563;1384
124.625;1381
124.688;1403
124.750;1379
124.813;1372
124.875;1394
124.938;1413
125.000;1433
125.063;1437
125.125;1413
125.188;1403
125.250;1357
125.313;1357
125.375;1359
125.438;1362
125.500;1369
125.563;1372
125.625;1381
125.688;1381
125.750;1376
125.813;1381
125.875;1423
125.938;1657
126.000;1643
126.063;1711
126.125;1691
126.188;1643
126.250;1555
126.313;1491
126.375;1528
126.438;1574
126.500;1530
126.563;1601
126.625;1579
126.688;1542
126.750;1508
126.813;1467
126.875;1428
126.938;1384
127.000;1359
127.063;1337
127.125;1342
127.188;1340
127.250;1333
127.313;1350
127.375;1357
127.438;1357
127.500;1362
127.563;1379
127.625;1396
127.688;1425
127.750;1459
127.813;1625
127.875;1752
127.938;1752
128.000;1789
128.063;1740
128.125;1657
128.188;1530
128.250;1484
128.313;1516
128.375;1511
128.438;1511
128.500;1506
128.563;1494
128.625;1528
128.688;1516
128.750;1582
128.813;1572
128.875;1591
128.938;1606
129.000;1567
129.063;1538
129.125;1550
129.188;1494
129.250;1457
129.313;1503
129.375;1496
129.438;1501
129.500;1591
129.563;1623
129.625;1650
129.688;1645
129.750;1616
129.813;1591
129.875;1567
129.938;1518
130.000;1545
130.063;1520
130.125;1564
130.188;1540
130.250;1625
130.313;1582
130.375;1635
130.438;1640
130.500;1613
130.563;1596
130.625;1530
130.688;1552
130.750;1552
130.813;1669
130.875;1682
130.938;1657
131.000;1625
131.063;1555
131.125;1511
131.188;1496
131.250;1499
131.313;1484
131.375;1479
131.438;1474
131.500;1462
131.563;1464
131.625;1486
131.688;1469
131.750;1506
131.813;1540
131.875;1564
131.938;1552
132.000;1599
132.063;1640
132.125;1611
132.188;1596
132.250;1586
132.313;1552
132.375;1496
132.438;1474
132.500;1506
132.563;1508
132.625;1484
132.688;1506
132.750;1494
132.813;1474
132.875;1467
132.938;1489
133.000;1525
133.063;1489
133.125;1523
133.188;1535
133.250;1579
133.313;1582
133.375;1564
133.438;1552
133.500;1560
133.563;1577
133.625;1564
133.688;1599
133.750;1562
133.813;1535
133.875;1569
133.938;1550
134.000;1577
