Frequency[MHz];Amplitude RX1[mV] at pwm=100
 45.000;1257
 45.063;1333
 45.125;1291
 45.188;1271
 45.250;1279
 45.313;1279
 45.375;1298
 45.438;1364
 45.500;1557
 45.563;1557
 45.625;1586
 45.688;1672
 45.750;1660
 45.813;1745
 45.875;1787
 45.938;1811
 46.000;1784
 46.063;1745
 46.125;1708
 46.188;1682
 46.250;1689
 46.313;1723
 46.375;1699
 46.438;1699
 46.500;1740
 46.563;1687
 46.625;1711
 46.688;1723
 46.750;1713
 46.813;1721
 46.875;1691
 46.938;1699
 47.000;1713
 47.063;1704
 47.125;1711
 47.188;1738
 47.250;1701
 47.313;1726
 47.375;1752
 47.438;1728
 47.500;1733
 47.563;1752
 47.625;1718
 47.688;1770
 47.750;1752
 47.813;1840
 47.875;1923
 47.938;1926
 48.000;1867
 48.063;1835
 48.125;1804
 48.188;1770
 48.250;1757
 48.313;1735
 48.375;1755
 48.438;1762
 48.500;1767
 48.563;1770
 48.625;1760
 48.688;1740
 48.750;1777
 48.813;1735
 48.875;1733
 48.938;1762
 49.000;1730
 49.063;1738
 49.125;1743
 49.188;1723
 49.250;1735
 49.313;1723
 49.375;1735
 49.438;1752
 49.500;1750
 49.563;1757
 49.625;1757
 49.688;1745
 49.750;1735
 49.813;1752
 49.875;1726
 49.938;1730
 50.000;1762
 50.063;1733
 50.125;1713
 50.188;1718
 50.250;1704
 50.313;1708
 50.375;1701
 50.438;1701
 50.500;1704
 50.563;1708
 50.625;1708
 50.688;1701
 50.750;1691
 50.813;1687
 50.875;1696
 50.938;1689
 51.000;1704
 51.063;1694
 51.125;1706
 51.188;1706
 51.250;1730
 51.313;1723
 51.375;1733
 51.438;1726
 51.500;1743
 51.563;1762
 51.625;1762
 51.688;1755
 51.750;1787
 51.813;1740
 51.875;1762
 51.938;1816
 52.000;1838
 52.063;1901
 52.125;1884
 52.188;1823
 52.250;1806
 52.313;1757
 52.375;1730
 52.438;1713
 52.500;1708
 52.563;1713
 52.625;1750
 52.688;1721
 52.750;1723
 52.813;1752
 52.875;1713
 52.938;1721
 53.000;1748
 53.063;1740
 53.125;1723
 53.188;1721
 53.250;1701
 53.313;1726
 53.375;1699
 53.438;1699
 53.500;1691
 53.563;1679
 53.625;1677
 53.688;1706
 53.750;1701
 53.813;1711
 53.875;1726
 53.938;1691
 54.000;1728
 54.063;1762
 54.125;1811
 54.188;1860
 54.250;1796
 54.313;1767
 54.375;1733
 54.438;1699
 54.500;1684
 54.563;1691
 54.625;1669
 54.688;1684
 54.750;1684
 54.813;1682
 54.875;1689
 54.938;1679
 55.000;1665
 55.063;1687
 55.125;1689
 55.188;1699
 55.250;1682
 55.313;1677
 55.375;1669
 55.438;1674
 55.500;1647
 55.563;1655
 55.625;1640
 55.688;1635
 55.750;1638
 55.813;1638
 55.875;1640
 55.938;1674
 56.000;1716
 56.063;1765
 56.125;1755
 56.188;1745
 56.250;1782
 56.313;1767
 56.375;1713
 56.438;1672
 56.500;1628
 56.563;1621
 56.625;1621
 56.688;1616
 56.750;1613
 56.813;1601
 56.875;1613
 56.938;1616
 57.000;1606
 57.063;1608
 57.125;1613
 57.188;1647
 57.250;1657
 57.313;1645
 57.375;1628
 57.438;1643
 57.500;1618
 57.563;1621
 57.625;1608
 57.688;1611
 57.750;1594
 57.813;1599
 57.875;1596
 57.938;1599
 58.000;1621
 58.063;1611
 58.125;1621
 58.188;1677
 58.250;1777
 58.313;1833
 58.375;1865
 58.438;1833
 58.500;1757
 58.563;1665
 58.625;1608
 58.688;1604
 58.750;1591
 58.813;1582
 58.875;1577
 58.938;1562
 59.000;1579
 59.063;1569
 59.125;1569
 59.188;1577
 59.250;1613
 59.313;1662
 59.375;1655
 59.438;1608
 59.500;1591
 59.563;1586
 59.625;1562
 59.688;1555
 59.750;1550
 59.813;1550
 59.875;1525
 59.938;1525
 60.000;1540
 60.063;1525
 60.125;1533
 60.188;1552
 60.250;1604
 60.313;1694
 60.375;1762
 60.438;1784
 60.500;1784
 60.563;1750
 60.625;1623
 60.688;1596
 60.750;1552
 60.813;1564
 60.875;1594
 60.938;1564
 61.000;1584
 61.063;1604
 61.125;1599
 61.188;1606
 61.250;1611
 61.313;1608
 61.375;1662
 61.438;1662
 61.500;1647
 61.563;1633
 61.625;1628
 61.688;1616
 61.750;1628
 61.813;1599
 61.875;1623
 61.938;1599
 62.000;1591
 62.063;1577
 62.125;1584
 62.188;1577
 62.250;1584
 62.313;1586
 62.375;1594
 62.438;1630
 62.500;1635
 62.563;1621
 62.625;1643
 62.688;1599
 62.750;1572
 62.813;1596
 62.875;1574
 62.938;1591
 63.000;1594
 63.063;1589
 63.125;1584
 63.188;1596
 63.250;1582
 63.313;1604
 63.375;1596
 63.438;1604
 63.500;1662
 63.563;1655
 63.625;1616
 63.688;1635
 63.750;1604
 63.813;1599
 63.875;1623
 63.938;1625
 64.000;1711
 64.063;1716
 64.125;1704
 64.188;1696
 64.250;1655
 64.313;1643
 64.375;1672
 64.438;1655
 64.500;1672
 64.563;1799
 64.625;1723
 64.688;1723
 64.750;1772
 64.813;1640
 64.875;1645
 64.938;1657
 65.000;1638
 65.063;1652
 65.125;1655
 65.188;1633
 65.250;1667
 65.313;1643
 65.375;1643
 65.438;1679
 65.500;1640
 65.563;1674
 65.625;1767
 65.688;1689
 65.750;1684
 65.813;1694
 65.875;1650
 65.938;1672
 66.000;1665
 66.063;1652
 66.125;1679
 66.188;1662
 66.250;1662
 66.313;1689
 66.375;1657
 66.438;1679
 66.500;1733
 66.563;1674
 66.625;1735
 66.688;1791
 66.750;1716
 66.813;1738
 66.875;1696
 66.938;1669
 67.000;1682
 67.063;1647
 67.125;1684
 67.188;1699
 67.250;1665
 67.313;1677
 67.375;1696
 67.438;1665
 67.500;1679
 67.563;1701
 67.625;1696
 67.688;1723
 67.750;1757
 67.813;1711
 67.875;1708
 67.938;1708
 68.000;1691
 68.063;1716
 68.125;1694
 68.188;1711
 68.250;1730
 68.313;1706
 68.375;1716
 68.438;1735
 68.500;1726
 68.563;1745
 68.625;1796
 68.688;1799
 68.750;1838
 68.813;1838
 68.875;1804
 68.938;1794
 69.000;1762
 69.063;1748
 69.125;1767
 69.188;1748
 69.250;1762
 69.313;1772
 69.375;1745
 69.438;1748
 69.500;1772
 69.563;1752
 69.625;1779
 69.688;1791
 69.750;1806
 69.813;1835
 69.875;1816
 69.938;1784
 70.000;1794
 70.063;1772
 70.125;1760
 70.188;1774
 70.250;1755
 70.313;1765
 70.375;1765
 70.438;1760
 70.500;1755
 70.563;1767
 70.625;1752
 70.688;1806
 70.750;1828
 70.813;1806
 70.875;1816
 70.938;1811
 71.000;1782
 71.063;1770
 71.125;1745
 71.188;1728
 71.250;1730
 71.313;1716
 71.375;1713
 71.438;1716
 71.500;1699
 71.563;1706
 71.625;1704
 71.688;1699
 71.750;1718
 71.813;1718
 71.875;1708
 71.938;1721
 72.000;1701
 72.063;1677
 72.125;1684
 72.188;1647
 72.250;1660
 72.313;1645
 72.375;1635
 72.438;1647
 72.500;1633
 72.563;1628
 72.625;1638
 72.688;1616
 72.750;1633
 72.813;1674
 72.875;1687
 72.938;1640
 73.000;1652
 73.063;1633
 73.125;1625
 73.188;1604
 73.250;1582
 73.313;1604
 73.375;1594
 73.438;1589
 73.500;1586
 73.563;1594
 73.625;1582
 73.688;1601
 73.750;1589
 73.813;1591
 73.875;1608
 73.938;1604
 74.000;1608
 74.063;1601
 74.125;1579
 74.188;1574
 74.250;1557
 74.313;1550
 74.375;1579
 74.438;1555
 74.500;1552
 74.563;1572
 74.625;1560
 74.688;1545
 74.750;1555
 74.813;1547
 74.875;1550
 74.938;1547
 75.000;1547
 75.063;1542
 75.125;1540
 75.188;1525
 75.250;1533
 75.313;1545
 75.375;1567
 75.438;1574
 75.500;1545
 75.563;1550
 75.625;1557
 75.688;1542
 75.750;1557
 75.813;1562
 75.875;1572
 75.938;1628
 76.000;1625
 76.063;1662
 76.125;1660
 76.188;1635
 76.250;1594
 76.313;1589
 76.375;1569
 76.438;1584
 76.500;1589
 76.563;1562
 76.625;1579
 76.688;1582
 76.750;1569
 76.813;1601
 76.875;1589
 76.938;1616
 77.000;1689
 77.063;1665
 77.125;1652
 77.188;1652
 77.250;1611
 77.313;1596
 77.375;1599
 77.438;1577
 77.500;1596
 77.563;1579
 77.625;1572
 77.688;1586
 77.750;1574
 77.813;1577
 77.875;1582
 77.938;1596
 78.000;1621
 78.063;1662
 78.125;1635
 78.188;1662
 78.250;1650
 78.313;1611
 78.375;1601
 78.438;1606
 78.500;1584
 78.563;1591
 78.625;1589
 78.688;1567
 78.750;1579
 78.813;1584
 78.875;1591
 78.938;1594
 79.000;1584
 79.063;1616
 79.125;1655
 79.188;1601
 79.250;1608
 79.313;1608
 79.375;1584
 79.438;1594
 79.500;1574
 79.563;1574
 79.625;1584
 79.688;1574
 79.750;1577
 79.813;1579
 79.875;1572
 79.938;1608
 80.000;1638
 80.063;1672
 80.125;1667
 80.188;1633
 80.250;1618
 80.313;1599
 80.375;1591
 80.438;1579
 80.500;1577
 80.563;1579
 80.625;1574
 80.688;1572
 80.750;1574
 80.813;1596
 80.875;1564
 80.938;1572
 81.000;1577
 81.063;1579
 81.125;1567
 81.188;1599
 81.250;1589
 81.313;1594
 81.375;1591
 81.438;1596
 81.500;1599
 81.563;1594
 81.625;1579
 81.688;1599
 81.750;1584
 81.813;1596
 81.875;1596
 81.938;1586
 82.000;1599
 82.063;1599
 82.125;1589
 82.188;1606
 82.250;1606
 82.313;1591
 82.375;1596
 82.438;1594
 82.500;1604
 82.563;1608
 82.625;1577
 82.688;1579
 82.750;1582
 82.813;1562
 82.875;1589
 82.938;1584
 83.000;1579
 83.063;1574
 83.125;1579
 83.188;1589
 83.250;1618
 83.313;1618
 83.375;1601
 83.438;1594
 83.500;1569
 83.563;1579
 83.625;1579
 83.688;1545
 83.750;1560
 83.813;1550
 83.875;1542
 83.938;1569
 84.000;1560
 84.063;1562
 84.125;1572
 84.188;1572
 84.250;1613
 84.313;1628
 84.375;1582
 84.438;1589
 84.500;1604
 84.563;1555
 84.625;1564
 84.688;1547
 84.750;1540
 84.813;1535
 84.875;1530
 84.938;1535
 85.000;1564
 85.063;1523
 85.125;1542
 85.188;1530
 85.250;1530
 85.313;1599
 85.375;1621
 85.438;1572
 85.500;1579
 85.563;1562
 85.625;1533
 85.688;1538
 85.750;1518
 85.813;1516
 85.875;1513
 85.938;1523
 86.000;1540
 86.063;1540
 86.125;1520
 86.188;1513
 86.250;1535
 86.313;1574
 86.375;1604
 86.438;1582
 86.500;1545
 86.563;1562
 86.625;1545
 86.688;1506
 86.750;1489
 86.813;1459
 86.875;1467
 86.938;1474
 87.000;1511
 87.063;1540
 87.125;1569
 87.188;1518
 87.250;1518
 87.313;1506
 87.375;1533
 87.438;1579
 87.500;1552
 87.563;1523
 87.625;1513
 87.688;1469
 87.750;1440
 87.813;1430
 87.875;1423
 87.938;1406
 88.000;1433
 88.063;1440
 88.125;1433
 88.188;1406
 88.250;1403
 88.313;1396
 88.375;1455
 88.438;1503
 88.500;1542
 88.563;1589
 88.625;1696
 88.688;1704
 88.750;1684
 88.813;1674
 88.875;1591
 88.938;1413
 89.000;1359
 89.063;1347
 89.125;1333
 89.188;1335
 89.250;1340
 89.313;1447
 89.375;1647
 89.438;1726
 89.500;1723
 89.563;1665
 89.625;1657
 89.688;1516
 89.750;1625
 89.813;1696
 89.875;1767
 89.938;1726
 90.000;1660
 90.063;1591
 90.125;1506
 90.188;1513
 90.250;1638
 90.313;1594
 90.375;1525
 90.438;1464
 90.500;1376
 90.563;1345
 90.625;1462
 90.688;1442
 90.750;1491
 90.813;1489
 90.875;1435
 90.938;1530
 91.000;1594
 91.063;1657
 91.125;1630
 91.188;1599
 91.250;1604
 91.313;1599
 91.375;1469
 91.438;1474
 91.500;1396
 91.563;1333
 91.625;1311
 91.688;1325
 91.750;1352
 91.813;1374
 91.875;1416
 91.938;1379
 92.000;1376
 92.063;1423
 92.125;1362
 92.188;1350
 92.250;1372
 92.313;1354
 92.375;1340
 92.438;1374
 92.500;1396
 92.563;1503
 92.625;1564
 92.688;1591
 92.750;1538
 92.813;1535
 92.875;1437
 92.938;1379
 93.000;1372
 93.063;1335
 93.125;1369
 93.188;1347
 93.250;1345
 93.313;1369
 93.375;1357
 93.438;1347
 93.500;1418
 93.563;1406
 93.625;1440
 93.688;1496
 93.750;1503
 93.813;1567
 93.875;1718
 93.938;1906
 94.000;2138
 94.063;2258
 94.125;2285
 94.188;2292
 94.250;2299
 94.313;2292
 94.375;2246
 94.438;2080
 94.500;1801
 94.563;1694
 94.625;1655
 94.688;1611
 94.750;1589
 94.813;1418
 94.875;1391
 94.938;1367
 95.000;1362
 95.063;1381
 95.125;1357
 95.188;1320
 95.250;1376
 95.313;1337
 95.375;1315
 95.438;1376
 95.500;1389
 95.563;1381
 95.625;1411
 95.688;1379
 95.750;1386
 95.813;1396
 95.875;1333
 95.938;1384
 96.000;1413
 96.063;1420
 96.125;1447
 96.188;1408
 96.250;1330
 96.313;1379
 96.375;1379
 96.438;1352
 96.500;1372
 96.563;1308
 96.625;1206
 96.688;1323
 96.750;1367
 96.813;1186
 96.875;1435
 96.938;1254
 97.000;1364
 97.063;1401
 97.125;1450
 97.188;1469
 97.250;1247
 97.313;1394
 97.375;1345
 97.438;1604
 97.500;1894
 97.563;1982
 97.625;1828
 97.688;1369
 97.750;1342
 97.813;1311
 97.875;1508
 97.938;1613
 98.000;1574
 98.063;1464
 98.125;1323
 98.188;1437
 98.250;1467
 98.313;1276
 98.375;1447
 98.438;1201
 98.500;1201
 98.563;1245
 98.625;1108
 98.688;1057
 98.750;1230
 98.813;1311
 98.875;1428
 98.938;1044
 99.000;1472
 99.063;1359
 99.125;1252
 99.188;1557
 99.250;1621
 99.313;1335
 99.375;1308
 99.438;1428
 99.500;1149
 99.563;1362
 99.625;1215
 99.688;1210
 99.750;1230
 99.813;1362
 99.875;1625
 99.938;1892
100.000;1972
100.063;2019
100.125;1982
100.188;1933
100.250;1909
100.313;1684
100.375;1425
100.438;1540
100.500;1574
100.563;1772
100.625;1945
100.688;2163
100.750;2277
100.813;2287
100.875;2285
100.938;2299
101.000;2297
101.063;2302
101.125;2221
101.188;1958
101.250;1647
101.313;1357
101.375;1320
101.438;1433
101.500;1718
101.563;1918
101.625;1999
101.688;2058
101.750;2004
101.813;1955
101.875;1811
101.938;1613
102.000;1496
102.063;1184
102.125;1157
102.188;1674
102.250;1772
102.313;1508
102.375;1413
102.438;1462
102.500;1574
102.563;1423
102.625;1398
102.688;1372
102.750;1223
102.813;1276
102.875;1289
102.938;1435
103.000;1459
103.063;1469
103.125;1503
103.188;1696
103.250;1474
103.313;1518
103.375;1574
103.438;1657
103.500;1655
103.563;1779
103.625;1701
103.688;1689
103.750;1274
103.813;1379
103.875;1418
103.938;1396
104.000;1423
104.063;1428
104.125;1481
104.188;1613
104.250;1557
104.313;1586
104.375;1640
104.438;1591
104.500;1433
104.563;1196
104.625;1464
104.688;1552
104.750;1772
104.813;1813
104.875;1799
104.938;1809
105.000;1677
105.063;1533
105.125;1262
105.188;1123
105.250;1193
105.313;1259
105.375;1113
105.438;1000
105.500;1015
105.563;1018
105.625;1040
105.688;1057
105.750;1103
105.813;1069
105.875;1142
105.938;1240
106.000;1391
106.063;1457
106.125;1516
106.188;1394
106.250;1357
106.313;1286
106.375;1459
106.438;1652
106.500;1860
106.563;2102
106.625;2236
106.688;2277
106.750;2287
106.813;2302
106.875;2299
106.938;2299
107.000;2255
107.063;2045
107.125;1809
107.188;1528
107.250;1208
107.313;1210
107.375;1269
107.438;1318
107.500;1359
107.563;1330
107.625;1311
107.688;1247
107.750;1127
107.813;1110
107.875;1137
107.938;1127
108.000;1062
108.063;1325
108.125;1728
108.188;1633
108.250;1035
108.313;1010
108.375;1245
108.438;1286
108.500;1157
108.563;1101
108.625;1071
108.688;1013
108.750;996
108.813;1020
108.875;1057
108.938;1071
109.000;1083
109.063;1127
109.125;1145
109.188;1252
109.250;1113
109.313;1022
109.375;1188
109.438;1796
109.500;1853
109.563;1369
109.625;1057
109.688;1062
109.750;1042
109.813;1042
109.875;1103
109.938;1184
110.000;1098
110.063;1132
110.125;1159
110.188;1037
110.250;1076
110.313;1027
110.375;920
110.438;939
110.500;1123
110.563;1437
110.625;1730
110.688;1911
110.750;1955
110.813;2006
110.875;1989
110.938;1906
111.000;1726
111.063;1477
111.125;1254
111.188;1198
111.250;1237
111.313;1284
111.375;1337
111.438;1354
111.500;1362
111.563;1374
111.625;1357
111.688;1354
111.750;1376
111.813;1357
111.875;1354
111.938;1364
112.000;1333
112.063;1328
112.125;1362
112.188;1345
112.250;1354
112.313;1372
112.375;1345
112.438;1391
112.500;1394
112.563;1379
112.625;1418
112.688;1420
112.750;1403
112.813;1398
112.875;1376
112.938;1364
113.000;1364
113.063;1347
113.125;1347
113.188;1369
113.250;1354
113.313;1369
113.375;1386
113.438;1372
113.500;1396
113.563;1374
113.625;1376
113.688;1381
113.750;1362
113.813;1347
113.875;1362
113.938;1364
114.000;1374
114.063;1376
114.125;1362
114.188;1381
114.250;1413
114.313;1408
114.375;1396
114.438;1374
114.500;1359
114.563;1386
114.625;1376
114.688;1379
114.750;1435
114.813;1503
114.875;1611
114.938;1591
115.000;1589
115.063;1542
115.125;1394
115.188;1364
115.250;1364
115.313;1364
115.375;1357
115.438;1372
115.500;1374
115.563;1364
115.625;1372
115.688;1376
115.750;1376
115.813;1364
115.875;1352
115.938;1359
116.000;1352
116.063;1369
116.125;1374
116.188;1340
116.250;1352
116.313;1352
116.375;1352
116.438;1352
116.500;1357
116.563;1350
116.625;1352
116.688;1352
116.750;1369
116.813;1350
116.875;1354
116.938;1347
117.000;1357
117.063;1337
117.125;1362
117.188;1357
117.250;1342
117.313;1350
117.375;1340
117.438;1352
117.500;1376
117.563;1384
117.625;1376
117.688;1357
117.750;1354
117.813;1364
117.875;1362
117.938;1342
118.000;1345
118.063;1354
118.125;1352
118.188;1350
118.250;1350
118.313;1328
118.375;1330
118.438;1328
118.500;1340
118.563;1347
118.625;1342
118.688;1347
118.750;1364
118.813;1350
118.875;1350
118.938;1350
119.000;1333
119.063;1320
119.125;1335
119.188;1333
119.250;1345
119.313;1330
119.375;1320
119.438;1333
119.500;1342
119.563;1350
119.625;1389
119.688;1408
119.750;1379
119.813;1367
119.875;1352
119.938;1362
120.000;1352
120.063;1357
120.125;1364
120.188;1342
120.250;1345
120.313;1347
120.375;1330
120.438;1330
120.500;1330
120.563;1340
120.625;1359
120.688;1374
120.750;1357
120.813;1359
120.875;1367
120.938;1362
121.000;1350
121.063;1335
121.125;1315
121.188;1308
121.250;1320
121.313;1323
121.375;1335
121.438;1320
121.500;1330
121.563;1342
121.625;1340
121.688;1379
121.750;1430
121.813;1433
121.875;1384
121.938;1376
122.000;1352
122.063;1357
122.125;1328
122.188;1308
122.250;1313
122.313;1313
122.375;1311
122.438;1328
122.500;1313
122.563;1318
122.625;1323
122.688;1335
122.750;1359
122.813;1350
122.875;1340
122.938;1354
123.000;1357
123.063;1318
123.125;1325
123.188;1303
123.250;1293
123.313;1303
123.375;1298
123.438;1311
123.500;1306
123.563;1303
123.625;1313
123.688;1311
123.750;1325
123.813;1369
123.875;1406
123.938;1379
124.000;1345
124.063;1325
124.125;1311
124.188;1318
124.250;1301
124.313;1293
124.375;1296
124.438;1293
124.500;1274
124.563;1291
124.625;1293
124.688;1289
124.750;1303
124.813;1320
124.875;1340
124.938;1345
125.000;1369
125.063;1406
125.125;1362
125.188;1337
125.250;1337
125.313;1286
125.375;1279
125.438;1284
125.500;1286
125.563;1286
125.625;1293
125.688;1284
125.750;1296
125.813;1289
125.875;1306
125.938;1342
126.000;1357
126.063;1342
126.125;1320
126.188;1303
126.250;1293
126.313;1284
126.375;1308
126.438;1323
126.500;1318
126.563;1308
126.625;1311
126.688;1296
126.750;1281
126.813;1296
126.875;1313
126.938;1311
127.000;1318
127.063;1298
127.125;1293
127.188;1296
127.250;1293
127.313;1298
127.375;1298
127.438;1296
127.500;1293
127.563;1289
127.625;1301
127.688;1311
127.750;1286
127.813;1293
127.875;1306
127.938;1308
128.000;1315
128.063;1342
128.125;1337
128.188;1328
128.250;1311
128.313;1308
128.375;1308
128.438;1296
128.500;1293
128.563;1308
128.625;1296
128.688;1293
128.750;1313
128.813;1311
128.875;1291
128.938;1315
129.000;1318
129.063;1306
129.125;1320
129.188;1291
129.250;1315
129.313;1303
129.375;1303
129.438;1323
129.500;1311
129.563;1303
129.625;1318
129.688;1315
129.750;1306
129.813;1318
129.875;1306
129.938;1313
130.000;1315
130.063;1320
130.125;1325
130.188;1328
130.250;1318
130.313;1306
130.375;1308
130.438;1303
130.500;1318
130.563;1303
130.625;1308
130.688;1318
130.750;1306
130.813;1303
130.875;1311
130.938;1303
131.000;1315
131.063;1320
131.125;1311
131.188;1325
131.250;1311
131.313;1311
131.375;1308
131.438;1313
131.500;1311
131.563;1318
131.625;1318
131.688;1298
131.750;1320
131.813;1301
131.875;1303
131.938;1313
132.000;1313
132.063;1313
132.125;1315
132.188;1318
132.250;1335
132.313;1320
132.375;1315
132.438;1306
132.500;1308
132.563;1311
132.625;1330
132.688;1352
132.750;1384
132.813;1398
132.875;1359
132.938;1372
133.000;1330
133.063;1311
133.125;1308
133.188;1318
133.250;1308
133.313;1315
133.375;1306
133.438;1303
133.500;1311
133.563;1306
133.625;1298
133.688;1311
133.750;1301
133.813;1315
133.875;1315
133.938;1308
134.000;1320
