Frequency[MHz];Amplitude RX1[mV] at pwm=120
 45.000;1198
 45.063;1662
 45.125;1643
 45.188;1577
 45.250;1477
 45.313;1511
 45.375;1289
 45.438;1525
 45.500;1479
 45.563;1525
 45.625;1525
 45.688;1511
 45.750;1562
 45.813;1894
 45.875;1982
 45.938;1437
 46.000;1350
 46.063;1342
 46.125;1350
 46.188;1330
 46.250;1525
 46.313;1350
 46.375;1323
 46.438;1303
 46.500;1301
 46.563;1340
 46.625;1345
 46.688;1511
 46.750;1345
 46.813;1408
 46.875;1447
 46.938;1396
 47.000;1381
 47.063;1462
 47.125;1433
 47.188;1411
 47.250;1350
 47.313;1333
 47.375;1330
 47.438;1403
 47.500;1574
 47.563;1755
 47.625;1789
 47.688;1872
 47.750;1928
 47.813;1901
 47.875;1779
 47.938;1472
 48.000;1362
 48.063;1347
 48.125;1347
 48.188;1318
 48.250;1347
 48.313;1386
 48.375;1386
 48.438;1396
 48.500;1374
 48.563;1354
 48.625;1354
 48.688;1357
 48.750;1335
 48.813;1330
 48.875;1342
 48.938;1406
 49.000;1472
 49.063;1364
 49.125;1367
 49.188;1379
 49.250;1384
 49.313;1374
 49.375;1372
 49.438;1430
 49.500;1459
 49.563;1445
 49.625;1477
 49.688;1462
 49.750;1433
 49.813;1408
 49.875;1381
 49.938;1362
 50.000;1333
 50.063;1347
 50.125;1372
 50.188;1813
 50.250;1901
 50.313;1813
 50.375;1538
 50.438;1445
 50.500;1628
 50.563;1569
 50.625;1542
 50.688;1616
 50.750;1687
 50.813;1633
 50.875;1625
 50.938;1447
 51.000;1408
 51.063;1398
 51.125;1403
 51.188;1416
 51.250;1408
 51.313;1411
 51.375;1391
 51.438;1389
 51.500;1447
 51.563;1472
 51.625;1677
 51.688;1743
 51.750;1704
 51.813;1701
 51.875;1733
 51.938;1765
 52.000;1730
 52.063;1679
 52.125;1665
 52.188;1574
 52.250;1508
 52.313;1452
 52.375;1464
 52.438;1479
 52.500;1489
 52.563;1450
 52.625;1425
 52.688;1430
 52.750;1403
 52.813;1372
 52.875;1376
 52.938;1428
 53.000;1435
 53.063;1442
 53.125;1447
 53.188;1447
 53.250;1455
 53.313;1472
 53.375;1435
 53.438;1413
 53.500;1430
 53.563;1469
 53.625;1499
 53.688;1503
 53.750;1496
 53.813;1496
 53.875;1516
 53.938;1655
 54.000;1706
 54.063;1765
 54.125;1713
 54.188;1689
 54.250;1672
 54.313;1643
 54.375;1584
 54.438;1538
 54.500;1513
 54.563;1494
 54.625;1455
 54.688;1442
 54.750;1435
 54.813;1435
 54.875;1418
 54.938;1420
 55.000;1445
 55.063;1457
 55.125;1564
 55.188;1694
 55.250;1503
 55.313;1455
 55.375;1457
 55.438;1450
 55.500;1442
 55.563;1455
 55.625;1447
 55.688;1459
 55.750;1523
 55.813;1691
 55.875;1918
 55.938;2207
 56.000;2326
 56.063;2351
 56.125;2353
 56.188;2346
 56.250;2341
 56.313;2260
 56.375;2065
 56.438;1813
 56.500;1574
 56.563;1525
 56.625;1430
 56.688;1418
 56.750;1428
 56.813;1425
 56.875;1408
 56.938;1411
 57.000;1401
 57.063;1394
 57.125;1394
 57.188;1538
 57.250;1599
 57.313;1533
 57.375;1481
 57.438;1503
 57.500;1508
 57.563;1491
 57.625;1564
 57.688;1628
 57.750;1625
 57.813;1623
 57.875;1582
 57.938;1569
 58.000;1589
 58.063;1567
 58.125;1560
 58.188;1513
 58.250;1508
 58.313;1606
 58.375;1489
 58.438;1430
 58.500;1416
 58.563;1406
 58.625;1386
 58.688;1376
 58.750;1396
 58.813;1394
 58.875;1394
 58.938;1489
 59.000;1518
 59.063;1423
 59.125;1413
 59.188;1420
 59.250;1403
 59.313;1394
 59.375;1376
 59.438;1394
 59.500;1472
 59.563;1628
 59.625;1682
 59.688;1665
 59.750;1567
 59.813;1586
 59.875;1569
 59.938;1474
 60.000;1477
 60.063;1489
 60.125;1535
 60.188;1542
 60.250;1569
 60.313;1547
 60.375;1552
 60.438;1572
 60.500;1562
 60.563;1550
 60.625;1518
 60.688;1486
 60.750;1542
 60.813;1562
 60.875;1567
 60.938;1552
 61.000;1516
 61.063;1484
 61.125;1477
 61.188;1462
 61.250;1425
 61.313;1411
 61.375;1413
 61.438;1418
 61.500;1477
 61.563;1599
 61.625;1628
 61.688;1682
 61.750;1745
 61.813;1704
 61.875;1608
 61.938;1425
 62.000;1389
 62.063;1389
 62.125;1381
 62.188;1376
 62.250;1413
 62.313;1525
 62.375;1469
 62.438;1643
 62.500;1669
 62.563;1796
 62.625;1840
 62.688;1875
 62.750;1945
 62.813;1889
 62.875;1848
 62.938;1645
 63.000;1572
 63.063;1479
 63.125;1455
 63.188;1445
 63.250;1425
 63.313;1430
 63.375;1425
 63.438;1430
 63.500;1494
 63.563;1530
 63.625;1589
 63.688;1555
 63.750;1501
 63.813;1484
 63.875;1445
 63.938;1433
 64.000;1428
 64.063;1442
 64.125;1462
 64.188;1469
 64.250;1489
 64.313;1481
 64.375;1479
 64.438;1481
 64.500;1506
 64.563;1567
 64.625;1640
 64.688;1662
 64.750;1750
 64.813;1738
 64.875;1743
 64.938;1508
 65.000;1408
 65.063;1379
 65.125;1413
 65.188;1545
 65.250;1457
 65.313;1423
 65.375;1394
 65.438;1389
 65.500;1408
 65.563;1401
 65.625;1452
 65.688;1547
 65.750;1528
 65.813;1508
 65.875;1513
 65.938;1496
 66.000;1469
 66.063;1435
 66.125;1428
 66.188;1367
 66.250;1337
 66.313;1357
 66.375;1401
 66.438;1430
 66.500;1437
 66.563;1420
 66.625;1403
 66.688;1403
 66.750;1372
 66.813;1323
 66.875;1315
 66.938;1311
 67.000;1320
 67.063;1381
 67.125;1437
 67.188;1435
 67.250;1457
 67.313;1440
 67.375;1420
 67.438;1386
 67.500;1484
 67.563;1569
 67.625;1591
 67.688;1508
 67.750;1472
 67.813;1499
 67.875;1494
 67.938;1486
 68.000;1472
 68.063;1491
 68.125;1486
 68.188;1491
 68.250;1538
 68.313;1623
 68.375;1599
 68.438;1589
 68.500;1569
 68.563;1550
 68.625;1435
 68.688;1437
 68.750;1347
 68.813;1340
 68.875;1337
 68.938;1345
 69.000;1401
 69.063;1423
 69.125;1435
 69.188;1494
 69.250;1464
 69.313;1450
 69.375;1406
 69.438;1506
 69.500;1520
 69.563;1550
 69.625;1479
 69.688;1481
 69.750;1525
 69.813;1696
 69.875;1914
 69.938;2194
 70.000;2329
 70.063;2353
 70.125;2358
 70.188;2351
 70.250;2348
 70.313;2292
 70.375;2111
 70.438;1860
 70.500;1589
 70.563;1459
 70.625;1459
 70.688;1450
 70.750;1445
 70.813;1489
 70.875;1459
 70.938;1389
 71.000;1386
 71.063;1406
 71.125;1428
 71.188;1457
 71.250;1462
 71.313;1435
 71.375;1418
 71.438;1374
 71.500;1374
 71.563;1403
 71.625;1672
 71.688;1706
 71.750;1760
 71.813;1696
 71.875;1669
 71.938;1618
 72.000;1523
 72.063;1467
 72.125;1452
 72.188;1435
 72.250;1423
 72.313;1452
 72.375;1457
 72.438;1506
 72.500;1545
 72.563;1555
 72.625;1501
 72.688;1469
 72.750;1413
 72.813;1481
 72.875;1538
 72.938;1584
 73.000;1520
 73.063;1477
 73.125;1472
 73.188;1396
 73.250;1359
 73.313;1335
 73.375;1318
 73.438;1328
 73.500;1394
 73.563;1535
 73.625;1635
 73.688;1643
 73.750;1577
 73.813;1616
 73.875;1599
 73.938;1445
 74.000;1447
 74.063;1518
 74.125;1567
 74.188;1542
 74.250;1496
 74.313;1496
 74.375;1428
 74.438;1445
 74.500;1474
 74.563;1589
 74.625;1623
 74.688;1706
 74.750;1794
 74.813;1811
 74.875;1818
 74.938;1760
 75.000;1735
 75.063;1582
 75.125;1479
 75.188;1457
 75.250;1450
 75.313;1450
 75.375;1445
 75.438;1462
 75.500;1518
 75.563;1618
 75.625;1652
 75.688;1679
 75.750;1738
 75.813;1689
 75.875;1660
 75.938;1555
 76.000;1601
 76.063;1542
 76.125;1499
 76.188;1496
 76.250;1523
 76.313;1682
 76.375;1931
 76.438;2229
 76.500;2285
 76.563;2316
 76.625;2268
 76.688;2243
 76.750;2199
 76.813;1999
 76.875;1770
 76.938;1633
 77.000;1801
 77.063;1979
 77.125;2038
 77.188;2026
 77.250;1960
 77.313;1943
 77.375;1806
 77.438;1650
 77.500;1701
 77.563;1848
 77.625;1896
 77.688;1889
 77.750;1875
 77.813;1853
 77.875;1777
 77.938;1728
 78.000;1757
 78.063;1901
 78.125;1955
 78.188;1950
 78.250;1875
 78.313;1855
 78.375;1784
 78.438;1813
 78.500;1738
 78.563;1787
 78.625;1706
 78.688;1708
 78.750;1667
 78.813;1657
 78.875;1628
 78.938;1623
 79.000;1625
 79.063;1621
 79.125;1613
 79.188;1818
 79.250;1857
 79.313;1835
 79.375;1875
 79.438;1774
 79.500;1748
 79.563;1711
 79.625;1662
 79.688;1650
 79.750;1650
 79.813;1625
 79.875;1647
 79.938;1672
 80.000;1672
 80.063;1662
 80.125;1657
 80.188;1616
 80.250;1599
 80.313;1579
 80.375;1582
 80.438;1586
 80.500;1604
 80.563;1599
 80.625;1604
 80.688;1599
 80.750;1591
 80.813;1625
 80.875;1630
 80.938;1660
 81.000;1767
 81.063;2019
 81.125;2050
 81.188;2021
 81.250;1955
 81.313;1950
 81.375;1967
 81.438;1787
 81.500;1704
 81.563;1672
 81.625;1777
 81.688;1752
 81.750;1799
 81.813;1770
 81.875;1760
 81.938;1733
 82.000;1682
 82.063;1674
 82.125;1667
 82.188;1752
 82.250;1791
 82.313;1794
 82.375;1835
 82.438;1791
 82.500;1757
 82.563;1694
 82.625;1660
 82.688;1630
 82.750;1621
 82.813;1669
 82.875;1716
 82.938;1755
 83.000;1791
 83.063;1774
 83.125;1777
 83.188;1843
 83.250;1826
 83.313;1857
 83.375;1767
 83.438;2006
 83.500;2026
 83.563;2077
 83.625;1997
 83.688;1962
 83.750;1884
 83.813;1708
 83.875;1667
 83.938;1875
 84.000;2148
 84.063;2192
 84.125;2214
 84.188;2150
 84.250;2126
 84.313;2023
 84.375;1811
 84.438;1796
 84.500;1750
 84.563;1762
 84.625;1699
 84.688;1684
 84.750;1687
 84.813;1723
 84.875;1772
 84.938;1772
 85.000;1816
 85.063;1757
 85.125;1716
 85.188;1706
 85.250;1645
 85.313;1647
 85.375;1647
 85.438;1608
 85.500;1601
 85.563;1730
 85.625;2033
 85.688;2189
 85.750;2202
 85.813;2175
 85.875;2158
 85.938;2033
 86.000;1857
 86.063;1811
 86.125;1816
 86.188;1743
 86.250;1679
 86.313;1704
 86.375;1745
 86.438;1828
 86.500;1865
 86.563;1879
 86.625;1882
 86.688;1840
 86.750;1757
 86.813;1779
 86.875;1833
 86.938;1887
 87.000;1848
 87.063;1799
 87.125;1772
 87.188;1657
 87.250;1623
 87.313;1645
 87.375;1660
 87.438;1647
 87.500;1621
 87.563;1645
 87.625;1662
 87.688;1691
 87.750;1706
 87.813;1684
 87.875;1660
 87.938;1655
 88.000;1716
 88.063;1855
 88.125;1933
 88.188;1901
 88.250;1838
 88.313;1813
 88.375;1735
 88.438;1735
 88.500;1733
 88.563;1765
 88.625;1708
 88.688;1728
 88.750;1916
 88.813;1977
 88.875;1997
 88.938;1936
 89.000;1914
 89.063;1838
 89.125;1748
 89.188;1645
 89.250;1628
 89.313;1667
 89.375;1684
 89.438;1662
 89.500;1738
 89.563;1853
 89.625;1901
 89.688;1892
 89.750;1828
 89.813;1818
 89.875;1796
 89.938;1826
 90.000;1770
 90.063;1738
 90.125;1723
 90.188;1711
 90.250;1735
 90.313;1826
 90.375;2038
 90.438;2290
 90.500;2343
 90.563;2358
 90.625;2351
 90.688;2343
 90.750;2331
 90.813;2209
 90.875;1972
 90.938;1735
 91.000;1784
 91.063;1982
 91.125;2033
 91.188;2043
 91.250;1972
 91.313;1945
 91.375;1831
 91.438;1760
 91.500;1726
 91.563;1743
 91.625;1777
 91.688;1831
 91.750;1857
 91.813;1813
 91.875;1765
 91.938;1760
 92.000;1804
 92.063;1911
 92.125;1965
 92.188;1999
 92.250;1894
 92.313;1914
 92.375;1804
 92.438;1821
 92.500;1762
 92.563;1811
 92.625;1831
 92.688;1853
 92.750;1870
 92.813;1862
 92.875;1835
 92.938;1826
 93.000;1806
 93.063;1757
 93.125;1718
 93.188;1684
 93.250;1689
 93.313;1684
 93.375;1691
 93.438;1708
 93.500;1708
 93.563;1704
 93.625;1679
 93.688;1647
 93.750;1635
 93.813;1613
 93.875;1647
 93.938;1672
 94.000;1650
 94.063;1689
 94.125;1633
 94.188;1645
 94.250;1621
 94.313;1630
 94.375;1650
 94.438;1669
 94.500;1701
 94.563;1711
 94.625;1723
 94.688;1708
 94.750;1674
 94.813;1699
 94.875;1708
 94.938;1752
 95.000;1972
 95.063;2121
 95.125;2160
 95.188;2128
 95.250;2109
 95.313;2089
 95.375;2016
 95.438;1811
 95.500;1701
 95.563;1669
 95.625;1762
 95.688;1809
 95.750;1843
 95.813;1799
 95.875;1811
 95.938;1774
 96.000;1706
 96.063;1672
 96.125;1689
 96.188;1713
 96.250;1899
 96.313;1914
 96.375;1931
 96.438;1896
 96.500;1855
 96.563;1733
 96.625;1726
 96.688;1699
 96.750;1718
 96.813;1708
 96.875;1752
 96.938;1767
 97.000;1733
 97.063;1728
 97.125;1706
 97.188;1682
 97.250;1733
 97.313;1748
 97.375;1848
 97.438;2121
 97.500;2224
 97.563;2221
 97.625;2197
 97.688;2187
 97.750;2136
 97.813;1940
 97.875;1757
 97.938;1718
 98.000;1953
 98.063;1975
 98.125;2011
 98.188;1931
 98.250;1914
 98.313;1862
 98.375;1796
 98.438;1860
 98.500;1845
 98.563;1882
 98.625;1865
 98.688;1811
 98.750;1796
 98.813;1804
 98.875;1938
 98.938;1977
 99.000;1916
 99.063;1872
 99.125;1828
 99.188;1782
 99.250;1791
 99.313;1762
 99.375;1765
 99.438;1730
 99.500;1782
 99.563;1945
 99.625;2250
 99.688;2326
 99.750;2348
 99.813;2346
 99.875;2329
 99.938;2316
100.000;2182
100.063;2038
100.125;1994
100.188;1977
100.250;1940
100.313;1918
100.375;1921
100.438;2045
100.500;2172
100.563;2155
100.625;2155
100.688;2126
100.750;2033
100.813;1965
100.875;2080
100.938;2124
101.000;2084
101.063;2038
101.125;2019
101.188;1845
101.250;1770
101.313;1760
101.375;1767
101.438;1762
101.500;1743
101.563;1738
101.625;1791
101.688;1782
101.750;1899
101.813;1889
101.875;1816
101.938;1865
102.000;1899
102.063;2050
102.125;2075
102.188;2114
102.250;2060
102.313;2006
102.375;1904
102.438;1967
102.500;1909
102.563;1975
102.625;1948
102.688;1948
102.750;1872
102.813;1850
102.875;1872
102.938;1826
103.000;1796
103.063;1779
103.125;1787
103.188;1772
103.250;1760
103.313;1774
103.375;1760
103.438;1740
103.500;1809
103.563;2048
103.625;2099
103.688;2084
103.750;2023
103.813;2019
103.875;1884
103.938;1796
104.000;1760
104.063;1770
104.125;1728
104.188;1733
104.250;1779
104.313;1784
104.375;1857
104.438;2104
104.500;2148
104.563;2233
104.625;2202
104.688;2128
104.750;2092
104.813;1938
104.875;1791
104.938;1735
105.000;1689
105.063;1794
105.125;1821
105.188;1833
105.250;1833
105.313;1857
105.375;1840
105.438;1884
105.500;1911
105.563;1987
105.625;1953
105.688;1865
105.750;1850
105.813;1767
105.875;1745
105.938;1765
106.000;1801
106.063;1828
106.125;1816
106.188;1816
106.250;1765
106.313;1721
106.375;1691
106.438;1677
106.500;1716
106.563;1791
106.625;1838
106.688;1840
106.750;1840
106.813;1804
106.875;1806
106.938;1840
107.000;1848
107.063;1862
107.125;1818
107.188;1791
107.250;1721
107.313;1721
107.375;1735
107.438;1782
107.500;1801
107.563;1845
107.625;1804
107.688;1770
107.750;1738
107.813;1669
107.875;1660
107.938;1665
108.000;1650
108.063;1647
108.125;1645
108.188;1650
108.250;1657
108.313;1689
108.375;1733
108.438;1743
108.500;1757
108.563;1726
108.625;1672
108.688;1652
108.750;1633
108.813;1643
108.875;1718
108.938;1728
109.000;1733
109.063;1882
109.125;1904
109.188;1901
109.250;1877
109.313;1901
109.375;1843
109.438;1770
109.500;1733
109.563;1689
109.625;1716
109.688;1748
109.750;1770
109.813;1755
109.875;1735
109.938;1711
110.000;1691
110.063;1689
110.125;1674
110.188;1682
110.250;1784
110.313;1826
110.375;1801
110.438;1755
110.500;1735
110.563;1711
110.625;1679
110.688;1662
110.750;1650
110.813;1669
110.875;1704
110.938;1691
111.000;1694
111.063;1677
111.125;1674
111.188;1694
111.250;1718
111.313;1728
111.375;1733
111.438;1962
111.500;2016
111.563;2077
111.625;2043
111.688;1984
111.750;1931
111.813;1777
111.875;1682
111.938;1704
112.000;1987
112.063;2043
112.125;2089
112.188;2019
112.250;2006
112.313;1936
112.375;1777
112.438;1750
112.500;1750
112.563;1787
112.625;1743
112.688;1728
112.750;1726
112.813;1728
112.875;1782
112.938;1813
113.000;1791
113.063;1752
113.125;1730
113.188;1677
113.250;1679
113.313;1657
113.375;1679
113.438;1650
113.500;1699
113.563;1706
113.625;2058
113.688;2214
113.750;2258
113.813;2272
113.875;2233
113.938;2175
114.000;1906
114.063;1918
114.125;1843
114.188;1828
114.250;1782
114.313;1770
114.375;1777
114.438;1931
114.500;2014
114.563;2077
114.625;2041
114.688;1992
114.750;1943
114.813;1862
114.875;1977
114.938;2031
115.000;2023
115.063;1979
115.125;1945
115.188;1748
115.250;1694
115.313;1623
115.375;1606
115.438;1613
115.500;1623
115.563;1635
115.625;1699
115.688;1765
115.750;1904
115.813;1809
115.875;1777
115.938;1726
116.000;1750
116.063;1970
116.125;2001
116.188;2021
116.250;1950
116.313;1940
116.375;1838
116.438;1806
116.500;1796
116.563;1821
116.625;1794
116.688;1784
116.750;1735
116.813;1662
116.875;1704
116.938;1684
117.000;1643
117.063;1652
117.125;1606
117.188;1638
117.250;1625
117.313;1633
117.375;1635
117.438;1599
117.500;1721
117.563;1909
117.625;1948
117.688;1970
117.750;1911
117.813;1892
117.875;1789
117.938;1726
118.000;1689
118.063;1701
118.125;1657
118.188;1630
118.250;1618
118.313;1638
118.375;1745
118.438;2070
118.500;2150
118.563;2197
118.625;2158
118.688;2114
118.750;2084
118.813;1916
118.875;1716
118.938;1611
119.000;1586
119.063;1704
119.125;1718
119.188;1752
119.250;1711
119.313;1718
119.375;1726
119.438;1811
119.500;1843
119.563;1877
119.625;1872
119.688;1799
119.750;1779
119.813;1669
119.875;1616
119.938;1704
120.000;1733
120.063;1774
120.125;1738
120.188;1721
120.250;1701
120.313;1647
120.375;1625
120.438;1577
120.500;1601
120.563;1752
120.625;1789
120.688;1804
120.750;1762
120.813;1745
120.875;1711
120.938;1701
121.000;1774
121.063;1809
121.125;1728
121.188;1718
121.250;1713
121.313;1655
121.375;1604
121.438;1701
121.500;1713
121.563;1696
121.625;1674
121.688;1638
121.750;1577
121.813;1538
121.875;1545
121.938;1533
122.000;1525
122.063;1513
122.125;1508
122.188;1506
122.250;1513
122.313;1533
122.375;1557
122.438;1577
122.500;1577
122.563;1557
122.625;1533
122.688;1486
122.750;1474
122.813;1469
122.875;1491
122.938;1513
123.000;1518
123.063;1667
123.125;1701
123.188;1708
123.250;1701
123.313;1711
123.375;1738
123.438;1650
123.500;1628
123.563;1589
123.625;1562
123.688;1550
123.750;1545
123.813;1518
123.875;1503
123.938;1494
124.000;1477
124.063;1501
124.125;1503
124.188;1550
124.250;1606
124.313;1606
124.375;1645
124.438;1569
124.500;1530
124.563;1508
124.625;1450
124.688;1430
124.750;1433
124.813;1428
124.875;1442
124.938;1472
125.000;1491
125.063;1472
125.125;1445
125.188;1423
125.250;1445
125.313;1457
125.375;1467
125.438;1662
125.500;1755
125.563;1826
125.625;1782
125.688;1726
125.750;1689
125.813;1547
125.875;1467
125.938;1550
126.000;1889
126.063;1958
126.125;2036
126.188;1967
126.250;1931
126.313;1887
126.375;1708
126.438;1562
126.500;1525
126.563;1582
126.625;1547
126.688;1503
126.750;1489
126.813;1455
126.875;1579
126.938;1574
127.000;1589
127.063;1530
127.125;1518
127.188;1445
127.250;1420
127.313;1416
127.375;1440
127.438;1403
127.500;1396
127.563;1420
127.625;1625
127.688;1884
127.750;1945
127.813;1938
127.875;1911
127.938;1828
128.000;1718
128.063;1591
128.125;1530
128.188;1538
128.250;1484
128.313;1455
128.375;1467
128.438;1599
128.500;1694
128.563;1723
128.625;1723
128.688;1652
128.750;1633
128.813;1552
128.875;1669
128.938;1696
129.000;1713
129.063;1633
129.125;1621
129.188;1508
129.250;1381
129.313;1340
129.375;1330
129.438;1333
129.500;1328
129.563;1337
129.625;1391
129.688;1406
129.750;1535
129.813;1484
129.875;1467
129.938;1469
130.000;1455
130.063;1721
130.125;1735
130.188;1787
130.250;1721
130.313;1669
130.375;1608
130.438;1545
130.500;1481
130.563;1618
130.625;1655
130.688;1589
130.750;1445
130.813;1433
130.875;1416
130.938;1389
131.000;1372
131.063;1411
131.125;1408
131.188;1433
131.250;1396
131.313;1381
131.375;1374
131.438;1369
131.500;1447
131.563;1728
131.625;1784
131.688;1818
131.750;1757
131.813;1723
131.875;1621
131.938;1511
132.000;1433
132.063;1442
132.125;1413
132.188;1445
132.250;1464
132.313;1489
132.375;1535
132.438;1640
132.500;1738
132.563;1806
132.625;1791
132.688;1733
132.750;1728
132.813;1611
132.875;1508
132.938;1477
133.000;1398
133.063;1440
133.125;1447
133.188;1474
133.250;1435
133.313;1425
133.375;1406
133.438;1533
133.500;1511
133.563;1489
133.625;1542
133.688;1474
133.750;1459
133.813;1406
133.875;1352
133.938;1379
134.000;1442
